# PA_bin	RadialBinCenter[kpc]	PA[deg]	RM[rad/m^2]
1	15.00	229.0822	-62.0510
1	15.00	248.9494	-59.3756
1	15.00	238.4778	-99.8745
1	15.00	251.5904	-40.1296
1	15.00	229.1860	-57.7900
1	15.00	275.6737	-45.3895
1	15.00	208.3821	-47.3729
1	15.00	182.8967	-98.4788
1	15.00	286.6214	-40.7773
1	15.00	249.1250	-92.7018
1	15.00	248.4657	-76.6898
1	15.00	172.7465	-44.7348
1	15.00	255.2526	-77.0707
1	15.00	223.9550	-83.7665
1	15.00	302.3863	-47.9265
1	15.00	134.2377	-66.9080
1	15.00	332.1416	-29.0449
1	15.00	62.1389	-58.1853
1	15.00	123.6772	-60.3649
1	15.00	3.4018	-173.3722
1	15.00	95.5604	-57.8016
1	15.00	92.7580	-60.8713
1	15.00	84.0219	-55.3326
1	15.00	93.8651	-64.2212
1	15.00	77.4761	-48.6095
1	15.00	103.1548	-99.8855
1	15.00	101.1712	-66.5512
1	15.00	62.7460	-38.7323
1	15.00	11.2645	-40.2454
1	15.00	74.9077	-41.9451
1	15.00	71.8749	-54.4300
1	15.00	27.2924	-40.6154
1	15.00	67.6122	-22.8859
2	45.00	236.2399	-36.5630
2	45.00	208.7785	-144.6973
2	45.00	252.6746	-94.7829
2	45.00	252.5569	-94.1373
2	45.00	260.1943	-58.1246
2	45.00	230.3745	-72.2384
2	45.00	265.7029	-57.1834
2	45.00	268.8240	-24.7996
2	45.00	203.7785	-98.6326
2	45.00	214.5223	-155.7862
2	45.00	200.4248	-93.7914
2	45.00	240.7213	-50.1814
2	45.00	178.8096	-89.2290
2	45.00	186.5666	-76.2364
2	45.00	283.3660	2.2578
2	45.00	200.7032	-90.8070
2	45.00	276.1619	-42.0694
2	45.00	178.0551	-99.6469
2	45.00	179.8866	-94.2413
2	45.00	291.1482	45.6618
2	45.00	287.1202	-24.5264
2	45.00	287.3426	-30.8981
2	45.00	170.4379	-82.0799
2	45.00	290.1715	-16.1946
2	45.00	192.4386	-83.7476
2	45.00	295.8836	41.6318
2	45.00	176.8131	-68.5673
2	45.00	298.5422	22.1763
2	45.00	177.9594	-68.0635
2	45.00	182.6028	-141.2500
2	45.00	182.3018	-117.6897
2	45.00	299.4748	24.8134
2	45.00	162.2870	-81.8057
2	45.00	163.1388	-83.6508
2	45.00	154.5946	-64.2021
2	45.00	162.6868	-78.9795
2	45.00	153.3880	-53.9829
2	45.00	146.7304	-45.3710
2	45.00	144.0627	-95.4852
2	45.00	139.4324	-91.4544
2	45.00	138.0862	-69.0438
2	45.00	137.0440	-60.9142
2	45.00	136.7336	-69.9861
2	45.00	132.6124	-59.8902
2	45.00	338.9729	10.2196
2	45.00	125.1378	-61.1847
2	45.00	127.6985	-21.2801
2	45.00	343.5609	-20.8368
2	45.00	118.1076	-28.5519
2	45.00	347.0931	29.1201
2	45.00	109.8518	-78.3163
2	45.00	349.8287	27.1648
2	45.00	110.2991	-19.9064
2	45.00	2.9037	-14.8812
2	45.00	104.4006	-39.1359
2	45.00	101.1942	-11.4413
2	45.00	108.4479	-27.1647
2	45.00	45.6832	4.4251
2	45.00	45.8643	-23.9501
2	45.00	4.6035	51.7959
2	45.00	86.5492	-1.4289
2	45.00	86.6575	-44.8985
2	45.00	77.3386	-43.1788
2	45.00	64.8216	-75.1263
2	45.00	33.4794	-62.8690
3	75.00	238.5898	-13.6187
3	75.00	249.0159	-2.4988
3	75.00	248.4265	-6.5791
3	75.00	255.4701	-53.9365
3	75.00	222.5635	-48.8825
3	75.00	211.8186	-67.7173
3	75.00	225.6568	-19.8065
3	75.00	206.2982	-91.2395
3	75.00	224.4223	-62.2734
3	75.00	280.7650	75.0000
3	75.00	269.9487	31.4354
3	75.00	258.4677	-46.4497
3	75.00	278.4477	88.9000
3	75.00	285.8668	72.4000
3	75.00	286.4084	72.4000
3	75.00	183.4135	-90.9151
3	75.00	277.0736	12.2283
3	75.00	289.5171	62.5000
3	75.00	290.2506	53.5000
3	75.00	167.7380	-60.3373
3	75.00	290.3867	64.0000
3	75.00	166.3032	-88.0679
3	75.00	170.9108	-101.4924
3	75.00	293.2799	37.6895
3	75.00	293.4559	32.0555
3	75.00	166.4818	-51.4211
3	75.00	161.0122	-78.4614
3	75.00	159.0691	-66.7791
3	75.00	158.9416	-78.8145
3	75.00	305.3449	68.6550
3	75.00	159.5883	-57.9710
3	75.00	306.5984	62.1624
3	75.00	151.2646	-101.3830
3	75.00	312.7536	49.7235
3	75.00	149.8793	-120.6771
3	75.00	145.8217	-57.5415
3	75.00	145.5323	-72.3882
3	75.00	318.8890	8.3962
3	75.00	322.0901	40.3444
3	75.00	323.4967	83.8044
3	75.00	327.5240	29.7114
3	75.00	137.8211	-71.9541
3	75.00	137.7599	-84.9212
3	75.00	333.1622	18.9960
3	75.00	340.5876	3.3753
3	75.00	342.5210	-12.7537
3	75.00	344.8552	24.0914
3	75.00	119.0446	-42.3649
3	75.00	107.4572	9.8498
3	75.00	113.4780	-71.4779
3	75.00	1.6321	8.6972
3	75.00	13.8890	55.1058
3	75.00	359.1617	10.6638
3	75.00	11.8284	8.7052
3	75.00	17.6698	14.6575
3	75.00	100.1545	-27.3908
3	75.00	12.9836	24.1666
3	75.00	16.9409	26.8541
3	75.00	89.0431	-5.2665
3	75.00	76.6945	-60.2880
3	75.00	10.5978	42.5332
3	75.00	88.7645	-22.9975
3	75.00	18.1349	39.5362
3	75.00	38.9072	-16.0095
3	75.00	17.6360	34.5181
3	75.00	17.7948	36.6564
3	75.00	20.4651	14.3196
3	75.00	68.5291	-31.4788
3	75.00	84.6511	-7.2693
3	75.00	68.6188	-35.9865
3	75.00	91.6982	-28.9193
3	75.00	91.6629	-27.8755
3	75.00	89.2764	-58.1966
3	75.00	26.5336	12.8293
3	75.00	69.1954	-22.5524
3	75.00	31.2182	-55.1081
3	75.00	49.4063	-44.7309
3	75.00	47.9831	-81.1822
3	75.00	48.0782	-73.8105
3	75.00	77.0925	-28.8953
3	75.00	62.9833	-10.4223
3	75.00	24.7858	0.0412
3	75.00	34.1679	-46.3678
3	75.00	42.9983	-59.1050
3	75.00	63.7691	-29.1220
3	75.00	64.2333	-67.9678
4	105.00	247.8203	11.6812
4	105.00	215.1453	-124.1307
4	105.00	233.4022	-36.6537
4	105.00	252.9257	29.3493
4	105.00	227.4767	-34.2200
4	105.00	218.1333	-93.0148
4	105.00	218.0937	-102.5974
4	105.00	246.9644	1.4583
4	105.00	203.1310	-92.8066
4	105.00	199.8561	-104.6577
4	105.00	226.9784	-37.6585
4	105.00	253.7298	13.3149
4	105.00	241.3010	4.0834
4	105.00	197.7046	-46.1409
4	105.00	251.8847	-2.0841
4	105.00	227.7609	-21.4337
4	105.00	255.9790	33.1356
4	105.00	206.4574	-145.8823
4	105.00	195.1525	-74.4884
4	105.00	207.5974	-126.6352
4	105.00	207.6616	-114.9706
4	105.00	191.6622	-65.2238
4	105.00	186.8408	-57.5291
4	105.00	276.7393	83.0000
4	105.00	274.9730	123.5000
4	105.00	273.3002	60.0000
4	105.00	181.1181	-57.7188
4	105.00	182.5647	-38.9280
4	105.00	271.9775	105.5000
4	105.00	181.2582	-30.3917
4	105.00	282.1265	53.8000
4	105.00	186.5578	-14.9679
4	105.00	286.5641	40.7000
4	105.00	276.0170	51.9000
4	105.00	178.2908	-42.4921
4	105.00	282.4402	85.4000
4	105.00	175.8975	-36.2563
4	105.00	292.2379	41.7000
4	105.00	171.5514	-35.7777
4	105.00	286.1777	48.0000
4	105.00	170.4814	-51.4121
4	105.00	297.8766	59.4000
4	105.00	297.8323	61.1000
4	105.00	168.3127	-69.5250
4	105.00	163.7594	-64.3714
4	105.00	164.0479	-41.4173
4	105.00	157.3662	-136.2105
4	105.00	153.6693	-67.8052
4	105.00	312.7240	65.4492
4	105.00	150.0627	-70.1463
4	105.00	149.5262	-67.3137
4	105.00	148.9771	-98.8524
4	105.00	147.4235	-66.9347
4	105.00	146.8495	-74.7106
4	105.00	318.1830	36.8702
4	105.00	146.4823	-76.0508
4	105.00	320.1789	63.5883
4	105.00	320.4328	45.0424
4	105.00	143.4782	-51.4384
4	105.00	143.4469	-63.8171
4	105.00	321.0705	61.0831
4	105.00	321.5636	27.1116
4	105.00	134.6725	-63.2060
4	105.00	133.6825	-81.6646
4	105.00	131.4606	-63.7787
4	105.00	334.7558	-15.7685
4	105.00	335.6907	-10.7465
4	105.00	335.7769	-10.1625
4	105.00	125.8299	-24.5343
4	105.00	123.1039	-39.4767
4	105.00	337.7755	3.4498
4	105.00	338.6708	6.6779
4	105.00	344.2941	7.7590
4	105.00	340.2811	21.8559
4	105.00	340.4483	11.1283
4	105.00	122.3683	-36.3731
4	105.00	341.3271	13.5385
4	105.00	117.5470	-33.9601
4	105.00	118.0130	-73.5459
4	105.00	343.8974	-3.1185
4	105.00	119.7120	-42.4471
4	105.00	118.7747	-25.9090
4	105.00	351.9285	38.0958
4	105.00	108.8326	-41.9574
4	105.00	353.2800	-14.5071
4	105.00	351.8512	-7.6758
4	105.00	111.5642	-12.0863
4	105.00	109.3983	-54.2521
4	105.00	102.3746	-7.2868
4	105.00	355.4718	1.7828
4	105.00	0.7812	-13.1615
4	105.00	98.8703	-27.3078
4	105.00	101.1361	20.2168
4	105.00	92.8475	-29.2155
4	105.00	5.0701	-17.5570
4	105.00	100.1035	16.4300
4	105.00	91.8157	2.5922
4	105.00	97.4246	-23.1383
4	105.00	95.6939	-6.8178
4	105.00	89.6749	22.4444
4	105.00	31.9795	-41.4038
4	105.00	92.5960	13.7400
4	105.00	15.5444	32.3052
4	105.00	12.6053	-32.8722
4	105.00	12.5323	-28.7005
4	105.00	82.1617	-2.4071
4	105.00	82.0090	11.0151
4	105.00	74.0144	-39.5753
4	105.00	32.4425	-3.2195
4	105.00	40.1669	-36.7922
4	105.00	83.7471	7.0536
4	105.00	43.5714	-26.9664
4	105.00	79.1543	-34.7988
4	105.00	78.5793	-58.7644
4	105.00	48.9043	-53.7225
4	105.00	29.1219	2.7130
4	105.00	30.6432	-2.0480
4	105.00	64.9238	-26.2069
4	105.00	76.4944	-23.9920
4	105.00	41.4091	-7.5242
4	105.00	41.6752	-30.7551
4	105.00	70.1243	-31.5248
4	105.00	65.1793	0.4310
4	105.00	57.0599	-10.7686
4	105.00	222.0441	22.8250
4	105.00	243.8226	61.6048
4	105.00	247.5883	85.0470
4	105.00	225.8796	-9.8127
4	105.00	215.9932	-56.4938
4	105.00	212.5188	-75.0497
5	135.00	269.6083	39.0000
5	135.00	197.5455	-23.8569
5	135.00	197.2293	-31.5420
5	135.00	270.3399	69.4000
5	135.00	194.8181	-38.7113
5	135.00	278.3038	107.3000
5	135.00	181.8318	-25.8717
5	135.00	277.0782	43.9000
5	135.00	272.2541	69.3000
5	135.00	276.6028	102.9000
5	135.00	283.0688	197.0000
5	135.00	187.1632	-19.6800
5	135.00	188.3672	-28.8009
5	135.00	182.8021	-64.3402
5	135.00	179.4192	-21.7701
5	135.00	179.4786	-22.8768
5	135.00	282.1374	74.2000
5	135.00	282.4554	81.8000
5	135.00	283.7730	95.0000
5	135.00	175.2179	-7.8989
5	135.00	175.1735	-7.8565
5	135.00	175.1484	-9.6236
5	135.00	289.5456	141.8000
5	135.00	286.2207	102.7000
5	135.00	181.0721	-24.3143
5	135.00	174.2952	15.0682
5	135.00	173.3385	-44.4650
5	135.00	176.3536	-31.0248
5	135.00	171.8738	-24.9608
5	135.00	288.6129	56.6000
5	135.00	288.6459	38.2000
5	135.00	293.4307	111.0000
5	135.00	171.9745	31.4784
5	135.00	171.9115	-15.7572
5	135.00	172.6692	-25.1328
5	135.00	290.6601	58.9000
5	135.00	169.9002	-26.0543
5	135.00	163.3759	-41.3605
5	135.00	165.9604	-39.4642
5	135.00	298.7225	53.8000
5	135.00	164.1106	-48.2909
5	135.00	301.4424	77.7000
5	135.00	301.5370	59.9000
5	135.00	300.6109	67.0000
5	135.00	163.7861	-42.7975
5	135.00	161.2944	-70.2504
5	135.00	157.2869	-53.0957
5	135.00	157.7158	-64.5650
5	135.00	308.9347	80.2847
5	135.00	310.0082	59.2188
5	135.00	310.5773	63.0116
5	135.00	150.2197	-51.0942
5	135.00	149.3849	-70.6804
5	135.00	149.0352	-51.4171
5	135.00	149.0818	-65.2853
5	135.00	317.3619	9.4109
5	135.00	144.5113	-42.9574
5	135.00	144.4675	-70.6255
5	135.00	144.0537	-74.6626
5	135.00	142.7809	-40.7070
5	135.00	322.4550	10.7011
5	135.00	142.0617	-54.0396
5	135.00	322.7090	20.4520
5	135.00	140.8737	-50.4703
5	135.00	325.2262	46.3791
5	135.00	138.7735	-72.4459
5	135.00	137.7326	-27.8640
5	135.00	137.7804	-52.8443
5	135.00	134.7271	-16.4793
5	135.00	330.1882	27.7341
5	135.00	330.3635	43.0582
5	135.00	331.1604	45.2226
5	135.00	331.1921	50.2173
5	135.00	133.0585	-46.9806
5	135.00	133.0435	-47.4788
5	135.00	131.8172	-99.1452
5	135.00	131.1957	-54.6415
5	135.00	131.3935	-41.1296
5	135.00	130.5286	-46.6825
5	135.00	335.9167	29.2310
5	135.00	336.5387	18.5059
5	135.00	338.4852	20.7883
5	135.00	126.0798	-16.7188
5	135.00	124.9565	-37.5214
5	135.00	123.6512	-34.4994
5	135.00	340.8802	-15.9912
5	135.00	340.4696	-16.2493
5	135.00	124.2954	-52.2721
5	135.00	344.1806	-25.3268
5	135.00	122.7021	-34.1318
5	135.00	343.0495	32.3370
5	135.00	344.0982	-17.1640
5	135.00	343.5365	83.2381
5	135.00	119.9772	-26.0681
5	135.00	120.6595	-52.7144
5	135.00	118.4441	-51.9842
5	135.00	350.9960	-34.0611
5	135.00	111.2435	-6.7352
5	135.00	114.9683	-39.6180
5	135.00	347.6581	-18.0460
5	135.00	114.6122	-25.3622
5	135.00	109.0677	-22.5987
5	135.00	114.0038	0.8122
5	135.00	109.5743	-1.5770
5	135.00	357.1829	-54.7390
5	135.00	357.1877	-26.5338
5	135.00	108.1733	-47.4862
5	135.00	356.8723	-35.2616
5	135.00	111.0382	-17.5081
5	135.00	357.3196	-66.7351
5	135.00	1.2451	-33.7202
5	135.00	102.5710	-5.5420
5	135.00	95.7893	40.9932
5	135.00	16.0508	-29.9158
5	135.00	84.7850	36.2420
5	135.00	8.9585	-52.0106
5	135.00	8.8129	-45.9983
5	135.00	16.8081	-28.7259
5	135.00	9.1499	-83.5969
5	135.00	13.8332	-72.6948
5	135.00	13.6786	-101.7142
5	135.00	26.3835	1.9452
5	135.00	21.5930	-32.1551
5	135.00	93.0795	48.3989
5	135.00	79.7639	38.4087
5	135.00	91.3588	27.0355
5	135.00	33.4355	-18.7581
5	135.00	45.3394	-17.2151
5	135.00	18.4205	-58.6998
5	135.00	84.8178	61.3056
5	135.00	61.2566	-2.1277
5	135.00	48.1134	-24.8772
5	135.00	72.2375	-119.1450
5	135.00	65.7435	7.8816
5	135.00	43.4302	-8.7076
5	135.00	71.3170	13.1766
5	135.00	26.5216	-13.5152
5	135.00	35.9403	-49.3462
5	135.00	72.1415	36.6810
5	135.00	72.7554	18.1088
5	135.00	25.0977	-52.8201
5	135.00	67.5876	-3.6510
5	135.00	67.4689	-20.1026
5	135.00	74.8130	20.4729
5	135.00	74.7164	8.7141
5	135.00	43.3398	-45.6527
5	135.00	41.8020	-60.8617
5	135.00	41.7727	-50.4893
5	135.00	69.5626	37.9861
5	135.00	58.5990	-28.2124
5	135.00	63.9598	-27.7872
5	135.00	63.8873	-25.4710
5	135.00	60.3100	-32.1765
5	135.00	56.3508	-47.0012
5	135.00	232.9765	48.5539
5	135.00	234.9163	74.6564
5	135.00	228.8827	64.8417
5	135.00	214.5826	-25.0131
5	135.00	251.6452	9.2585
5	135.00	254.6583	11.6654
5	135.00	223.9476	19.1129
5	135.00	215.7008	-26.6589
5	135.00	229.8340	57.4418
5	135.00	241.8609	57.1453
5	135.00	254.5796	43.0017
5	135.00	218.9216	-34.8621
5	135.00	222.3544	8.5015
5	135.00	222.3110	17.6020
5	135.00	206.7927	-73.0377
5	135.00	255.8050	18.4777
5	135.00	242.3907	34.3325
5	135.00	213.4255	-41.2646
5	135.00	246.7821	91.8738
5	135.00	259.4105	4.2252
5	135.00	265.6815	-3.7089
5	135.00	197.5771	-38.5304
5	135.00	267.5641	16.4729
5	135.00	201.7762	-74.8696
6	165.00	186.9480	-39.0000
6	165.00	184.3129	-22.4612
6	165.00	179.8518	-3.3267
6	165.00	183.6724	-25.2185
6	165.00	179.6672	-34.1440
6	165.00	177.0650	-19.0208
6	165.00	181.8562	-48.8385
6	165.00	177.2573	-6.0651
6	165.00	285.3237	143.9000
6	165.00	179.5265	-16.2542
6	165.00	172.0679	-28.3846
6	165.00	169.9158	-12.7507
6	165.00	170.7805	9.0197
6	165.00	294.7708	98.2000
6	165.00	297.3123	89.5000
6	165.00	169.8069	-39.1618
6	165.00	168.1643	-26.7497
6	165.00	165.5370	-57.4493
6	165.00	297.5989	106.1000
6	165.00	165.0392	-44.0388
6	165.00	300.3900	92.6000
6	165.00	166.4608	-68.0384
6	165.00	163.3606	-74.7062
6	165.00	166.2126	-49.3165
6	165.00	300.2625	94.0000
6	165.00	162.7253	-72.1358
6	165.00	159.3989	-79.1790
6	165.00	159.3778	-89.5000
6	165.00	158.3161	-54.9683
6	165.00	306.8958	103.9000
6	165.00	306.7484	69.5000
6	165.00	154.7825	-73.5340
6	165.00	154.2179	-49.2273
6	165.00	154.8396	-83.9699
6	165.00	153.7228	-56.5914
6	165.00	312.2129	23.5964
6	165.00	152.0884	-48.3142
6	165.00	150.4041	-50.2435
6	165.00	314.1230	24.7987
6	165.00	148.9736	-45.0405
6	165.00	148.3023	-38.7419
6	165.00	317.3540	-0.1943
6	165.00	318.4253	2.0046
6	165.00	145.7428	-48.7309
6	165.00	145.7067	-44.3239
6	165.00	142.3833	-32.8154
6	165.00	324.4294	2.6073
6	165.00	324.5416	-23.0140
6	165.00	324.3805	23.3804
6	165.00	139.0361	-40.8226
6	165.00	135.2491	-22.8557
6	165.00	133.8590	-60.6416
6	165.00	332.3471	18.7264
6	165.00	132.3589	-46.0573
6	165.00	127.7918	-33.7221
6	165.00	337.4739	13.0009
6	165.00	124.9828	-47.4605
6	165.00	124.7266	1.5497
6	165.00	122.2872	-77.5685
6	165.00	340.6160	34.3559
6	165.00	346.6116	14.6904
6	165.00	350.7456	-43.9441
6	165.00	115.6179	-23.9657
6	165.00	115.5538	-20.0641
6	165.00	111.0096	-35.5227
6	165.00	354.7251	-101.1781
6	165.00	110.5462	-27.7355
6	165.00	111.0584	-38.2080
6	165.00	104.6875	-18.4148
6	165.00	356.9260	-63.4013
6	165.00	355.5344	-94.2076
6	165.00	100.8241	-14.0232
6	165.00	99.4854	16.7753
6	165.00	100.5488	6.8644
6	165.00	0.7606	-14.9985
6	165.00	96.5088	30.0620
6	165.00	9.5644	-70.1131
6	165.00	98.1229	-11.6092
6	165.00	3.9917	-75.9246
6	165.00	98.9390	9.0777
6	165.00	98.9263	2.1475
6	165.00	12.3824	-90.3264
6	165.00	96.6677	46.3641
6	165.00	8.7984	-63.9000
6	165.00	14.4594	-72.5645
6	165.00	92.0685	61.1118
6	165.00	93.3779	26.1545
6	165.00	22.0277	-88.5411
6	165.00	27.7780	-47.4898
6	165.00	22.9198	-83.3732
6	165.00	76.4420	8.5636
6	165.00	16.0064	-73.8000
6	165.00	30.1618	-69.0974
6	165.00	72.4013	10.8050
6	165.00	18.1131	-98.0000
6	165.00	69.3873	-32.7631
6	165.00	36.4861	-31.2179
6	165.00	72.9192	-39.4266
6	165.00	27.4669	-95.9165
6	165.00	70.4430	-5.2632
6	165.00	67.3433	-61.5196
6	165.00	56.1924	-25.1639
6	165.00	44.1113	-47.4457
6	165.00	68.5321	-14.7085
6	165.00	58.0286	-58.7834
6	165.00	63.2365	-20.2819
6	165.00	50.2932	-14.5757
6	165.00	61.5058	-25.8433
6	165.00	27.4675	-119.3875
6	165.00	49.2342	-11.0184
6	165.00	35.1812	-30.5098
6	165.00	74.8752	-13.0325
6	165.00	40.5986	-34.8853
6	165.00	40.4995	-34.5194
6	165.00	51.4887	-5.8548
6	165.00	31.4532	-41.1477
6	165.00	31.5746	-30.7171
6	165.00	35.5708	-23.5944
6	165.00	32.8039	-58.9336
6	165.00	47.2127	6.8626
6	165.00	48.1804	-23.3430
6	165.00	69.8765	-17.2213
6	165.00	32.9312	-27.0555
6	165.00	40.4704	-22.2775
6	165.00	40.4113	-28.1939
6	165.00	40.4200	-32.8947
6	165.00	63.4624	-26.6740
6	165.00	62.9160	-36.5449
6	165.00	44.7508	-65.3727
6	165.00	237.4415	103.2595
6	165.00	228.3020	59.3823
6	165.00	220.2315	70.1881
6	165.00	232.8348	92.3109
6	165.00	234.9860	84.8363
6	165.00	221.5827	77.7404
6	165.00	232.4005	74.0483
6	165.00	219.1774	54.8341
6	165.00	214.0331	17.2337
6	165.00	251.9532	47.3724
6	165.00	235.0412	74.3233
6	165.00	206.7245	25.0502
6	165.00	217.8746	6.5728
6	165.00	233.1574	68.3433
6	165.00	249.2513	15.3266
6	165.00	250.3206	30.9646
6	165.00	246.3190	21.3504
6	165.00	244.1611	50.5137
6	165.00	252.8435	16.0126
6	165.00	264.2336	38.6000
6	165.00	208.4502	-17.6222
6	165.00	212.2773	-38.7185
6	165.00	203.5936	-37.7863
6	165.00	203.6062	-34.7103
6	165.00	248.8990	52.3890
6	165.00	200.2373	7.4943
6	165.00	200.2638	6.4123
6	165.00	261.5801	55.0000
6	165.00	200.9031	-42.0811
6	165.00	266.4104	60.8000
6	165.00	201.4024	-25.2121
6	165.00	259.8758	64.3025
6	165.00	205.6242	-49.4102
6	165.00	195.7706	6.8162
6	165.00	269.9921	60.6000
6	165.00	202.5435	-12.7521
6	165.00	273.7756	94.6000
6	165.00	189.3637	-9.3649
6	165.00	193.0771	-29.9793
6	165.00	272.2199	89.9000
6	165.00	265.4821	73.6000
6	165.00	187.9784	-32.5648
6	165.00	192.1650	20.8130
6	165.00	192.0706	3.8324
6	165.00	273.7085	104.0000
6	165.00	187.0695	-11.4347
6	165.00	276.8465	89.1000
6	165.00	274.1338	43.3000
6	165.00	181.1562	-24.0000
7	195.00	179.0245	-5.6000
7	195.00	175.0535	-54.7000
7	195.00	175.9102	-40.9872
7	195.00	176.4722	-10.5178
7	195.00	176.8827	-7.6631
7	195.00	290.5152	73.5000
7	195.00	173.1083	-77.9396
7	195.00	174.0911	-87.6419
7	195.00	170.9128	-51.7574
7	195.00	292.9432	90.9000
7	195.00	296.0380	64.5000
7	195.00	300.7825	45.4000
7	195.00	300.1495	64.9000
7	195.00	164.3182	-14.0765
7	195.00	301.5736	-26.0000
7	195.00	165.1008	-65.2230
7	195.00	162.4826	-88.8149
7	195.00	159.2349	-72.4408
7	195.00	158.6388	-76.7378
7	195.00	160.0548	-94.3147
7	195.00	158.0182	-75.7054
7	195.00	158.1898	-65.4565
7	195.00	157.3216	-37.5134
7	195.00	156.5058	-86.4788
7	195.00	308.4644	16.9000
7	195.00	156.1762	-78.3339
7	195.00	156.1176	-41.7997
7	195.00	155.6310	-71.0024
7	195.00	152.7850	-50.1372
7	195.00	151.9498	-50.6645
7	195.00	313.2705	9.0731
7	195.00	151.4971	-58.0934
7	195.00	150.2637	-31.4644
7	195.00	314.9513	31.9898
7	195.00	150.0083	-46.2208
7	195.00	148.7808	-53.0174
7	195.00	316.6952	47.3181
7	195.00	317.0244	8.8183
7	195.00	147.2546	-66.1633
7	195.00	146.2121	-3.9914
7	195.00	318.5873	-40.4004
7	195.00	319.3763	-60.3797
7	195.00	143.5598	-37.3673
7	195.00	142.9969	-68.6582
7	195.00	142.4135	-41.7517
7	195.00	142.3340	-39.7723
7	195.00	140.8840	-44.8348
7	195.00	136.1078	-41.4062
7	195.00	134.5246	-44.8128
7	195.00	133.2804	-50.5853
7	195.00	132.8141	61.3362
7	195.00	131.4545	-16.7289
7	195.00	131.9158	4.7815
7	195.00	130.8832	-24.5420
7	195.00	131.5490	-28.0979
7	195.00	333.8162	73.2739
7	195.00	130.7067	1.2081
7	195.00	130.7052	-6.9805
7	195.00	130.6319	-3.1442
7	195.00	127.7094	-17.4352
7	195.00	127.2573	-25.3643
7	195.00	336.4679	34.7183
7	195.00	125.3507	-25.9404
7	195.00	124.4012	-29.1955
7	195.00	123.6331	-9.2179
7	195.00	123.5274	-15.8996
7	195.00	343.3978	25.9362
7	195.00	344.8638	-0.0870
7	195.00	345.1763	-10.2240
7	195.00	344.7644	31.0541
7	195.00	121.4397	-8.6725
7	195.00	343.9202	24.1307
7	195.00	346.8980	-9.6326
7	195.00	119.4851	8.9363
7	195.00	347.1722	-16.4072
7	195.00	119.4333	11.0531
7	195.00	115.7986	-40.4412
7	195.00	347.8560	-2.7988
7	195.00	113.5778	-22.4778
7	195.00	113.0855	-31.1362
7	195.00	115.2944	-12.6243
7	195.00	112.0640	-5.5951
7	195.00	113.7503	-29.5864
7	195.00	113.3235	-37.9790
7	195.00	112.8358	-33.8053
7	195.00	355.6555	-115.4063
7	195.00	109.5206	-15.1784
7	195.00	110.0520	-33.8388
7	195.00	108.0035	-40.2658
7	195.00	107.6754	2.3336
7	195.00	103.6788	-27.0029
7	195.00	105.7360	-17.4380
7	195.00	105.8511	-9.3094
7	195.00	359.6258	-13.0000
7	195.00	1.5489	-121.7000
7	195.00	5.6145	-117.6000
7	195.00	98.5631	30.4224
7	195.00	99.0050	1.1306
7	195.00	96.1336	2.4237
7	195.00	89.9819	89.1280
7	195.00	14.8111	-37.9000
7	195.00	11.1432	-65.0000
7	195.00	9.8264	-26.1000
7	195.00	15.2123	-77.9000
7	195.00	86.0096	48.7284
7	195.00	91.0971	51.3619
7	195.00	20.1207	-70.1000
7	195.00	13.7601	-25.6000
7	195.00	89.8752	9.5100
7	195.00	85.3879	41.5252
7	195.00	87.0555	16.5672
7	195.00	80.9036	32.5505
7	195.00	82.3722	3.6392
7	195.00	80.3223	-6.3760
7	195.00	18.4610	-52.3000
7	195.00	78.9661	32.3199
7	195.00	83.0752	9.2761
7	195.00	24.2599	-112.4642
7	195.00	87.3908	-8.8320
7	195.00	83.5506	49.9007
7	195.00	20.2466	-56.4000
7	195.00	83.8354	48.0872
7	195.00	74.3670	-0.6723
7	195.00	86.2522	-8.6329
7	195.00	19.9296	-60.9000
7	195.00	72.4592	39.1687
7	195.00	28.8525	-94.2258
7	195.00	30.4118	-82.6529
7	195.00	70.5711	-17.8248
7	195.00	30.6213	-60.9741
7	195.00	63.1206	-29.5052
7	195.00	74.2740	-19.7575
7	195.00	24.2974	-58.3000
7	195.00	61.2645	-42.1463
7	195.00	57.0068	-48.0998
7	195.00	61.1774	-35.1452
7	195.00	59.5920	-18.9226
7	195.00	35.9087	-33.2010
7	195.00	76.7236	-88.4860
7	195.00	76.7393	-88.4886
7	195.00	38.8115	-44.0349
7	195.00	38.8493	-38.5978
7	195.00	74.2203	-39.2015
7	195.00	69.2160	-18.9253
7	195.00	33.7720	-50.6470
7	195.00	48.0207	-34.5020
7	195.00	44.2547	-14.1034
7	195.00	58.7127	-35.7044
7	195.00	55.2648	-42.1786
7	195.00	66.4140	-27.1826
7	195.00	53.0447	5.2655
7	195.00	57.0247	-74.7580
7	195.00	50.0947	-8.7499
7	195.00	51.1438	-21.9710
7	195.00	65.1440	-31.0938
7	195.00	41.0946	-40.0142
7	195.00	38.7195	-50.3878
7	195.00	46.5036	-95.3000
7	195.00	51.1555	10.8479
7	195.00	65.0274	-38.2593
7	195.00	55.8490	-25.2354
7	195.00	64.5743	-23.0111
7	195.00	58.2153	-37.4949
7	195.00	56.7259	-41.6558
7	195.00	232.8780	69.9379
7	195.00	238.6380	41.9645
7	195.00	230.8010	23.8050
7	195.00	239.6682	44.3778
7	195.00	245.4455	51.9992
7	195.00	237.1974	103.6439
7	195.00	237.5872	80.2885
7	195.00	246.7212	28.6694
7	195.00	220.9219	51.5634
7	195.00	235.6306	105.6902
7	195.00	217.7398	12.1965
7	195.00	231.8386	78.2693
7	195.00	219.1641	47.6572
7	195.00	223.2133	75.0449
7	195.00	224.1956	74.5796
7	195.00	252.2708	-5.6085
7	195.00	249.2754	36.0644
7	195.00	211.0418	5.9875
7	195.00	220.8428	76.8497
7	195.00	231.3348	115.3766
7	195.00	253.5494	14.0563
7	195.00	234.5280	98.6741
7	195.00	233.6608	108.0696
7	195.00	231.6271	120.0849
7	195.00	251.3737	49.8869
7	195.00	226.3781	98.8453
7	195.00	226.3690	108.1774
7	195.00	247.7688	63.3851
7	195.00	212.3160	96.3532
7	195.00	243.7304	5.5101
7	195.00	213.6261	5.1941
7	195.00	240.1711	86.2379
7	195.00	222.0342	69.2012
7	195.00	203.0320	36.9191
7	195.00	259.7182	10.7000
7	195.00	213.7382	15.4487
7	195.00	199.2864	26.8721
7	195.00	262.9799	9.9000
7	195.00	201.6430	30.8073
7	195.00	263.0461	4.5000
7	195.00	263.6155	4.3000
7	195.00	205.0445	4.2113
7	195.00	205.6544	-2.2722
7	195.00	264.0900	43.5000
7	195.00	194.8638	30.9881
7	195.00	263.2700	56.8000
7	195.00	198.8395	29.4067
7	195.00	188.7547	16.0410
7	195.00	274.5560	-11.7676
7	195.00	278.4585	20.0010
7	195.00	272.4034	51.8000
7	195.00	188.2283	29.2354
7	195.00	183.1486	-28.1157
7	195.00	277.2676	28.5823
7	195.00	182.4232	-22.9670
7	195.00	275.4786	38.6000
7	195.00	275.5592	49.1000
7	195.00	187.5187	-3.7011
7	195.00	181.3094	-55.2269
7	195.00	185.8228	6.5232
7	195.00	182.7207	-5.4018
7	195.00	181.0548	-22.7662
7	195.00	178.1619	-34.0268
7	195.00	287.1795	48.3908
7	195.00	285.3564	27.2402
7	195.00	181.6295	-5.3504
7	195.00	285.3380	69.1013
7	195.00	178.4583	-25.4000
8	225.00	292.1467	53.4000
8	225.00	292.1286	49.4000
8	225.00	171.5351	-72.6044
8	225.00	291.5393	54.8000
8	225.00	168.2301	-66.4603
8	225.00	169.8802	-62.1501
8	225.00	294.7009	73.2000
8	225.00	297.8098	69.1000
8	225.00	166.9984	-91.5479
8	225.00	164.2658	-55.8672
8	225.00	162.5991	-24.5548
8	225.00	163.8978	-17.7588
8	225.00	302.7161	-87.7000
8	225.00	159.2899	-49.9823
8	225.00	158.2847	-42.3749
8	225.00	158.2618	-41.6693
8	225.00	306.5333	27.8000
8	225.00	156.4047	-55.6878
8	225.00	307.9259	-31.3000
8	225.00	154.0931	-23.3603
8	225.00	154.0065	-39.4914
8	225.00	152.9652	-76.7271
8	225.00	150.7094	-13.5564
8	225.00	313.5072	10.5000
8	225.00	313.5523	59.6000
8	225.00	148.3145	-23.5988
8	225.00	146.7777	-5.7742
8	225.00	146.7594	-14.8795
8	225.00	146.1563	-27.6566
8	225.00	146.2438	-17.7117
8	225.00	144.9112	3.2704
8	225.00	144.1119	-13.1138
8	225.00	143.5203	-6.6551
8	225.00	143.3067	-23.3155
8	225.00	142.8455	-17.2175
8	225.00	321.8079	96.4634
8	225.00	322.0146	49.2033
8	225.00	140.2657	-16.3726
8	225.00	140.0352	-7.7190
8	225.00	139.6991	-75.8316
8	225.00	139.4689	0.5506
8	225.00	139.5075	-11.1526
8	225.00	138.9413	-14.3412
8	225.00	138.8978	-2.3516
8	225.00	139.0285	-3.7575
8	225.00	139.0219	-9.2593
8	225.00	328.1968	84.2292
8	225.00	135.0991	-39.4142
8	225.00	134.9603	-1.1869
8	225.00	133.9745	10.1487
8	225.00	133.3764	37.9049
8	225.00	332.1300	-57.5461
8	225.00	332.5603	40.0747
8	225.00	131.6265	-83.2262
8	225.00	336.1947	19.8289
8	225.00	128.4392	-49.7816
8	225.00	127.4420	-6.5332
8	225.00	127.1962	-5.5131
8	225.00	127.1846	-17.0037
8	225.00	125.1743	-7.1535
8	225.00	123.9323	-2.8928
8	225.00	123.7889	-0.9690
8	225.00	124.5907	-8.8464
8	225.00	124.6341	-19.9526
8	225.00	341.9461	8.9381
8	225.00	343.1315	117.7549
8	225.00	122.8075	-36.7205
8	225.00	122.7656	-19.3348
8	225.00	343.2659	169.6136
8	225.00	121.3553	-38.9356
8	225.00	343.0006	172.3294
8	225.00	343.9483	158.5780
8	225.00	118.4340	-35.5416
8	225.00	119.4966	11.9527
8	225.00	117.0431	-7.7646
8	225.00	349.7792	3.2026
8	225.00	116.6011	-20.8683
8	225.00	113.9765	-20.0471
8	225.00	350.9121	195.9524
8	225.00	112.4122	-3.5987
8	225.00	112.3234	-5.2312
8	225.00	354.9475	-68.6285
8	225.00	108.0415	-9.2484
8	225.00	110.0949	-0.8416
8	225.00	355.2954	221.3020
8	225.00	107.7183	119.0218
8	225.00	107.9949	-3.7593
8	225.00	105.5892	1.4080
8	225.00	105.6215	9.5151
8	225.00	102.7266	4.8283
8	225.00	102.6638	16.7137
8	225.00	101.2078	6.7684
8	225.00	102.4282	76.1044
8	225.00	103.3444	21.1015
8	225.00	6.2617	-24.0000
8	225.00	100.7384	10.2324
8	225.00	95.8287	7.1725
8	225.00	100.4309	2.4138
8	225.00	4.3875	-34.1000
8	225.00	96.9165	27.6945
8	225.00	5.3659	-37.5000
8	225.00	95.0735	-14.4047
8	225.00	5.4212	-22.9000
8	225.00	95.0930	-2.8508
8	225.00	97.0849	8.3530
8	225.00	97.4717	-1.9202
8	225.00	98.0538	36.5863
8	225.00	96.4943	25.3959
8	225.00	13.1227	12.3000
8	225.00	94.2394	15.3632
8	225.00	10.8405	-88.4000
8	225.00	87.8777	13.3155
8	225.00	87.6283	30.6566
8	225.00	85.6705	55.4621
8	225.00	86.4653	29.5878
8	225.00	88.3510	21.9278
8	225.00	81.6569	43.6890
8	225.00	88.3611	18.0336
8	225.00	87.5643	37.9109
8	225.00	81.4835	39.4423
8	225.00	85.6080	33.8381
8	225.00	86.3938	31.2815
8	225.00	78.5018	-32.7746
8	225.00	80.7724	-7.6371
8	225.00	80.2056	-26.7485
8	225.00	69.3011	-13.6310
8	225.00	77.5102	-40.4952
8	225.00	77.7895	-16.1735
8	225.00	33.3726	61.4979
8	225.00	65.2180	-18.7819
8	225.00	75.1437	10.2863
8	225.00	78.2669	-29.4921
8	225.00	57.5508	-56.3094
8	225.00	48.9775	5.1733
8	225.00	77.0945	-12.8728
8	225.00	54.1469	23.2043
8	225.00	69.5863	-44.9578
8	225.00	42.7302	-88.4720
8	225.00	57.1120	-34.0279
8	225.00	37.3490	-96.0846
8	225.00	43.5948	-94.4163
8	225.00	64.5645	-11.2727
8	225.00	59.8896	-54.4253
8	225.00	42.8666	-14.7998
8	225.00	67.9145	-19.5673
8	225.00	59.0204	-13.3762
8	225.00	63.7254	-22.1654
8	225.00	50.9639	-4.6569
8	225.00	46.9600	-28.3000
8	225.00	64.8111	6.0798
8	225.00	48.3663	-42.3000
8	225.00	239.3627	35.2360
8	225.00	229.8610	116.6786
8	225.00	245.4459	32.0653
8	225.00	244.6737	44.7336
8	225.00	217.6679	33.1414
8	225.00	238.5463	34.1166
8	225.00	247.4147	59.0473
8	225.00	235.1358	80.5312
8	225.00	231.9133	108.7673
8	225.00	223.9466	87.0507
8	225.00	231.5519	105.9131
8	225.00	229.1751	113.6717
8	225.00	223.5644	76.4540
8	225.00	235.2976	71.8114
8	225.00	246.2631	52.3533
8	225.00	213.4566	-6.6492
8	225.00	220.4631	34.7240
8	225.00	250.7605	42.3861
8	225.00	211.9478	5.0632
8	225.00	221.5163	27.1510
8	225.00	250.3233	50.7162
8	225.00	232.7749	67.5068
8	225.00	250.1774	46.1892
8	225.00	222.2860	62.3503
8	225.00	227.1349	92.6392
8	225.00	246.5667	35.9823
8	225.00	211.8678	36.1137
8	225.00	231.2158	97.9012
8	225.00	244.9360	21.6149
8	225.00	259.5585	-24.0692
8	225.00	207.5963	5.2443
8	225.00	220.9024	58.6371
8	225.00	209.0062	19.3129
8	225.00	258.3425	25.2936
8	225.00	257.1454	20.6365
8	225.00	257.1962	21.0050
8	225.00	212.7795	11.4370
8	225.00	211.6586	-17.3058
8	225.00	257.9798	19.3333
8	225.00	212.6781	20.7132
8	225.00	213.3517	42.5716
8	225.00	254.7803	5.1273
8	225.00	258.2033	-12.4000
8	225.00	251.8100	26.3382
8	225.00	209.2041	-31.6662
8	225.00	259.8342	28.3143
8	225.00	209.9497	-28.4524
8	225.00	201.7582	21.5592
8	225.00	198.7536	16.5194
8	225.00	210.2681	-10.3090
8	225.00	203.1802	21.1756
8	225.00	257.2375	-1.0746
8	225.00	258.4822	48.2272
8	225.00	266.2006	-5.4016
8	225.00	199.7255	50.9790
8	225.00	199.7146	34.3550
8	225.00	202.7274	13.0572
8	225.00	196.6081	30.6458
8	225.00	196.5639	-14.7665
8	225.00	197.1854	23.4140
8	225.00	263.3054	-6.3000
8	225.00	193.9034	38.1267
8	225.00	270.7587	18.6157
8	225.00	187.0358	-46.4632
8	225.00	271.0516	38.1134
8	225.00	278.1938	-30.1280
8	225.00	185.8855	-54.1388
8	225.00	184.3841	-64.7917
8	225.00	183.7277	-52.7642
8	225.00	181.2036	-67.4039
8	225.00	185.1960	-16.7430
8	225.00	178.8405	-76.9600
8	225.00	179.3847	-75.3163
8	225.00	286.5952	177.5272
8	225.00	283.7342	75.4384
8	225.00	177.6975	-29.1940
8	225.00	179.3759	-60.1659
8	225.00	177.2767	-40.4986
8	225.00	285.1704	91.3443
8	225.00	173.7597	-16.9749
8	225.00	176.2215	-36.9748
8	225.00	174.7137	-27.6367
8	225.00	174.6678	-31.3060
8	225.00	172.3103	-62.2838
8	225.00	173.5017	-34.7856
8	225.00	173.4869	-26.6761
8	225.00	171.8270	-42.2457
9	255.00	168.8135	-39.0000
9	255.00	169.6511	-79.9379
9	255.00	165.4001	-45.0591
9	255.00	163.8095	-57.9712
9	255.00	163.5850	-60.7507
9	255.00	164.0832	-70.2924
9	255.00	160.4376	-44.1589
9	255.00	158.8470	-17.4678
9	255.00	159.3132	-16.1452
9	255.00	158.0177	-26.5876
9	255.00	157.2732	5.8311
9	255.00	156.1479	-22.8791
9	255.00	155.7163	-19.9748
9	255.00	155.6986	-9.1697
9	255.00	155.8690	-36.1302
9	255.00	154.7904	6.4342
9	255.00	154.7434	-37.6792
9	255.00	154.7972	-32.0932
9	255.00	153.0501	8.4525
9	255.00	153.0659	-12.2307
9	255.00	152.5723	-21.4508
9	255.00	152.3553	-4.8396
9	255.00	152.3983	-2.4465
9	255.00	151.3012	-21.1831
9	255.00	151.0523	-12.3821
9	255.00	146.9609	1.8431
9	255.00	146.8439	0.0745
9	255.00	146.8013	22.1517
9	255.00	145.4591	9.7204
9	255.00	145.5060	0.6146
9	255.00	145.3344	64.9419
9	255.00	144.5185	-21.4475
9	255.00	144.2486	-12.8159
9	255.00	142.1539	-17.7935
9	255.00	141.8779	-10.8680
9	255.00	141.8230	0.4096
9	255.00	141.2848	-13.4334
9	255.00	141.1657	-28.6543
9	255.00	140.3806	-13.5000
9	255.00	138.5930	-54.1929
9	255.00	138.5670	-49.5003
9	255.00	138.5124	-14.0044
9	255.00	137.9947	-17.6820
9	255.00	134.5975	1.2817
9	255.00	134.1509	-8.3903
9	255.00	133.6782	-9.3588
9	255.00	127.9830	-13.3606
9	255.00	127.2111	-7.9684
9	255.00	126.9916	0.9930
9	255.00	123.8372	-3.1325
9	255.00	123.5083	-11.1945
9	255.00	121.3428	-14.9572
9	255.00	121.1111	-1.4696
9	255.00	121.7027	4.7582
9	255.00	120.7888	14.5904
9	255.00	118.9897	8.0096
9	255.00	117.6875	-5.6325
9	255.00	115.8858	-0.3445
9	255.00	352.5651	243.7408
9	255.00	112.2500	21.1157
9	255.00	112.9810	-56.0014
9	255.00	110.6003	12.4165
9	255.00	110.0358	-26.3095
9	255.00	111.3231	35.7301
9	255.00	354.4961	215.5597
9	255.00	110.4163	18.0945
9	255.00	107.0398	19.0250
9	255.00	106.0463	34.4000
9	255.00	104.9461	12.1715
9	255.00	104.5661	24.7628
9	255.00	103.7609	27.7826
9	255.00	101.8110	20.9267
9	255.00	102.3010	38.8193
9	255.00	98.6728	40.1107
9	255.00	8.2860	-50.8000
9	255.00	97.5008	23.2936
9	255.00	99.1068	23.4376
9	255.00	95.8654	22.4175
9	255.00	95.8730	20.6896
9	255.00	97.8612	46.2355
9	255.00	98.0241	8.2730
9	255.00	7.0128	10.6835
9	255.00	96.3082	23.6917
9	255.00	92.4183	-12.1220
9	255.00	93.9469	-3.3274
9	255.00	94.7059	23.7494
9	255.00	94.6413	15.5818
9	255.00	89.6931	-3.7632
9	255.00	16.3917	40.7613
9	255.00	91.0225	-8.1142
9	255.00	90.2883	-16.8599
9	255.00	16.1953	-25.3072
9	255.00	84.2795	20.6793
9	255.00	17.9032	-5.9490
9	255.00	16.7407	49.2412
9	255.00	81.8713	31.7700
9	255.00	87.0101	-57.3532
9	255.00	84.7648	22.9343
9	255.00	76.5266	-14.1548
9	255.00	83.0711	58.7418
9	255.00	76.7645	-49.4417
9	255.00	81.1753	17.6952
9	255.00	25.0085	-16.7163
9	255.00	25.0015	-18.7847
9	255.00	76.2970	-9.1591
9	255.00	37.1900	-89.7254
9	255.00	34.1325	-56.5448
9	255.00	76.9855	-46.2720
9	255.00	65.3411	-7.9537
9	255.00	27.4509	-27.3212
9	255.00	77.5181	-2.2829
9	255.00	78.0218	6.1666
9	255.00	29.3689	4.1819
9	255.00	55.8466	23.5288
9	255.00	74.8146	-55.5457
9	255.00	71.4976	-44.4553
9	255.00	65.4826	-26.8090
9	255.00	69.7449	-62.9187
9	255.00	52.9720	117.3166
9	255.00	57.0432	9.9249
9	255.00	72.0655	-59.3835
9	255.00	55.7253	5.2307
9	255.00	54.6602	28.8258
9	255.00	54.7151	8.8251
9	255.00	45.1107	-46.1680
9	255.00	55.4535	5.2336
9	255.00	56.3943	-11.1214
9	255.00	69.4295	-38.9867
9	255.00	65.7815	-5.3662
9	255.00	50.0868	12.6000
9	255.00	70.5332	-60.7016
9	255.00	58.3344	-12.1180
9	255.00	56.5884	10.6655
9	255.00	44.6636	-59.6139
9	255.00	38.2979	-71.4818
9	255.00	38.2907	-81.6278
9	255.00	64.4266	-6.0692
9	255.00	64.4800	-8.7562
9	255.00	63.7915	-29.5351
9	255.00	52.8318	-20.2830
9	255.00	62.9057	-36.7871
9	255.00	48.0676	-65.8489
9	255.00	50.8181	-46.6000
9	255.00	55.3934	-31.4710
9	255.00	55.6313	-15.1282
9	255.00	55.5956	-8.5045
9	255.00	55.6210	-59.0259
9	255.00	52.6717	-24.2793
9	255.00	53.4652	-14.9827
9	255.00	230.0064	78.4698
9	255.00	233.7336	49.7850
9	255.00	222.3663	57.6373
9	255.00	240.5810	-1.4706
9	255.00	220.6487	66.7191
9	255.00	230.0508	55.6594
9	255.00	219.4759	119.0908
9	255.00	230.1297	42.5556
9	255.00	248.4385	-2.8077
9	255.00	232.4651	24.0859
9	255.00	221.8264	66.2638
9	255.00	243.2701	10.1961
9	255.00	218.9151	77.7491
9	255.00	218.8291	74.7766
9	255.00	218.7940	85.7464
9	255.00	230.1793	133.4736
9	255.00	214.8115	210.8682
9	255.00	251.2161	1.8127
9	255.00	225.1936	97.3072
9	255.00	224.7874	106.1301
9	255.00	238.0764	39.5247
9	255.00	222.6562	89.0051
9	255.00	252.1937	5.6964
9	255.00	213.6716	84.7606
9	255.00	233.3943	52.2058
9	255.00	251.9201	13.6562
9	255.00	214.2116	45.3759
9	255.00	213.6487	55.4261
9	255.00	246.7944	38.2222
9	255.00	208.6037	40.2584
9	255.00	249.8445	36.3956
9	255.00	245.2132	-4.2578
9	255.00	206.7986	31.9250
9	255.00	206.7621	44.6858
9	255.00	248.9908	52.8342
9	255.00	209.3577	23.0389
9	255.00	213.5944	35.5316
9	255.00	256.8116	-33.0209
9	255.00	259.6569	10.5000
9	255.00	204.1013	1.4108
9	255.00	204.3534	28.1401
9	255.00	206.2116	20.2601
9	255.00	258.5788	-3.7000
9	255.00	260.7424	-5.9000
9	255.00	262.5792	28.0000
9	255.00	200.8567	-3.9508
9	255.00	255.7060	29.9787
9	255.00	208.9790	33.7402
9	255.00	209.9316	21.3596
9	255.00	202.9897	-9.6840
9	255.00	203.6881	1.5732
9	255.00	207.8686	11.8300
9	255.00	199.0951	-11.4866
9	255.00	200.6710	-28.2933
9	255.00	261.9186	-8.7000
9	255.00	200.2127	-4.2383
9	255.00	202.5905	23.1037
9	255.00	198.9536	26.7178
9	255.00	192.3443	-44.5012
9	255.00	194.6703	45.8051
9	255.00	192.2935	-73.7235
9	255.00	196.3348	-6.6582
9	255.00	271.5143	25.9000
9	255.00	266.9799	-4.1000
9	255.00	193.2760	-92.5205
9	255.00	195.6396	66.5128
9	255.00	189.6347	-20.3232
9	255.00	192.0299	-73.3652
9	255.00	194.2396	159.3361
9	255.00	187.4169	-22.9732
9	255.00	191.0541	-63.8662
9	255.00	274.9358	-40.5944
9	255.00	188.7911	-90.8406
9	255.00	186.2796	-8.9659
9	255.00	274.9337	-26.4602
9	255.00	279.4801	29.9941
9	255.00	181.0629	-3.7884
9	255.00	185.3298	-88.2355
9	255.00	182.8039	-73.5512
9	255.00	180.0020	-39.0998
9	255.00	177.1484	-23.5976
9	255.00	177.0953	-24.0481
9	255.00	172.5136	-45.9845
9	255.00	173.1283	-52.2329
9	255.00	172.5249	-41.5704
9	255.00	169.7034	-35.5229
9	255.00	171.2427	-45.8876
10	285.00	166.7318	-42.9530
10	285.00	166.3822	-52.9079
10	285.00	166.3599	-44.5060
10	285.00	166.3538	-33.4250
10	285.00	161.4748	-32.3892
10	285.00	161.4311	-23.2224
10	285.00	159.8597	-24.5032
10	285.00	157.0219	-27.4993
10	285.00	155.7273	-18.1057
10	285.00	155.6618	-23.7671
10	285.00	155.4094	-25.3963
10	285.00	152.9831	-11.1268
10	285.00	150.5719	-4.2290
10	285.00	150.0965	-1.6091
10	285.00	149.6026	1.1732
10	285.00	145.6774	9.5330
10	285.00	145.0332	16.8448
10	285.00	144.2711	8.1369
10	285.00	143.9860	6.3652
10	285.00	143.9837	5.9758
10	285.00	143.4974	-2.6017
10	285.00	142.9735	8.5474
10	285.00	141.1357	9.7281
10	285.00	140.2145	8.6256
10	285.00	139.6181	17.1037
10	285.00	139.5619	2.9454
10	285.00	139.0397	13.9571
10	285.00	138.9418	7.1463
10	285.00	138.6759	-4.3571
10	285.00	138.2801	5.3706
10	285.00	138.3930	18.2624
10	285.00	137.5075	5.6508
10	285.00	137.2214	13.7905
10	285.00	136.4838	-11.5033
10	285.00	136.0053	-12.3046
10	285.00	135.9840	-9.3114
10	285.00	133.7305	-18.4444
10	285.00	133.0860	-17.2362
10	285.00	132.8417	-17.5356
10	285.00	132.6336	14.8433
10	285.00	131.2572	-26.1392
10	285.00	131.2143	-9.5276
10	285.00	125.6028	-39.0496
10	285.00	125.0241	33.7171
10	285.00	124.7925	-17.3224
10	285.00	123.4475	-9.0080
10	285.00	121.6018	-8.8792
10	285.00	121.9269	-37.9644
10	285.00	119.8148	-11.6796
10	285.00	118.6997	32.3107
10	285.00	118.2348	39.2151
10	285.00	119.6691	28.3671
10	285.00	116.9781	-0.6833
10	285.00	117.9804	-28.4696
10	285.00	115.8450	23.6764
10	285.00	115.8027	-12.6914
10	285.00	114.9783	2.4239
10	285.00	113.9494	6.2794
10	285.00	113.2492	4.2700
10	285.00	110.3464	15.4035
10	285.00	111.1346	-9.5522
10	285.00	109.9404	-0.0718
10	285.00	108.5067	35.4033
10	285.00	108.3164	48.0762
10	285.00	104.8502	23.7529
10	285.00	106.9259	16.1821
10	285.00	105.5256	23.6081
10	285.00	101.7894	51.8082
10	285.00	102.8890	21.7146
10	285.00	102.5426	45.9684
10	285.00	102.5018	30.4899
10	285.00	103.7068	-21.9392
10	285.00	100.4010	13.1294
10	285.00	100.6349	22.5776
10	285.00	99.3471	11.6499
10	285.00	100.2458	4.1237
10	285.00	97.8483	22.7662
10	285.00	102.0720	32.7461
10	285.00	101.2708	45.6761
10	285.00	96.5830	8.1051
10	285.00	96.5621	8.8006
10	285.00	9.4616	-130.3089
10	285.00	94.2056	-1.1900
10	285.00	93.8402	2.7571
10	285.00	94.9440	12.6137
10	285.00	95.7781	-2.0450
10	285.00	94.5536	-8.9147
10	285.00	89.9098	-21.2339
10	285.00	91.7481	-11.6635
10	285.00	91.8167	-19.3924
10	285.00	92.4526	-19.1118
10	285.00	87.2728	-48.1631
10	285.00	91.6594	46.6993
10	285.00	84.9939	18.9539
10	285.00	19.1630	-30.1423
10	285.00	80.2810	-0.5595
10	285.00	83.7723	6.6162
10	285.00	83.6400	-6.9060
10	285.00	20.5383	-34.5025
10	285.00	78.9329	-0.6451
10	285.00	20.3430	-11.8359
10	285.00	81.4660	44.1694
10	285.00	75.7979	-48.7909
10	285.00	25.8932	17.3980
10	285.00	79.5026	15.4477
10	285.00	23.3484	-13.9174
10	285.00	79.4855	18.7233
10	285.00	23.4117	-1.7520
10	285.00	79.3133	3.8366
10	285.00	80.6742	1.7962
10	285.00	27.2256	-10.8668
10	285.00	78.7274	2.1759
10	285.00	80.1322	1.4591
10	285.00	79.3406	-24.7127
10	285.00	71.1329	-67.7264
10	285.00	75.0190	-39.6569
10	285.00	79.9730	-8.1293
10	285.00	28.3336	-14.3305
10	285.00	65.4411	3.1290
10	285.00	65.4039	3.2517
10	285.00	64.2848	-28.1399
10	285.00	26.3910	22.6614
10	285.00	68.3709	-25.9611
10	285.00	68.3940	-28.1739
10	285.00	33.6027	-14.0446
10	285.00	70.4239	-48.6627
10	285.00	34.0628	-40.5497
10	285.00	62.9546	-31.6828
10	285.00	57.3237	12.3022
10	285.00	74.1396	-45.5368
10	285.00	60.6641	8.4416
10	285.00	74.9885	14.6339
10	285.00	73.9616	-45.0862
10	285.00	68.3268	-37.2613
10	285.00	33.0774	-8.9972
10	285.00	33.1295	-11.9714
10	285.00	30.2354	12.4950
10	285.00	72.1561	-11.7495
10	285.00	67.1648	-8.8609
10	285.00	31.3122	-32.8433
10	285.00	31.3363	-19.5647
10	285.00	37.9565	-24.5693
10	285.00	56.3164	31.3477
10	285.00	45.2808	-48.5820
10	285.00	37.2125	-49.0471
10	285.00	65.3854	9.4660
10	285.00	63.2226	-12.9261
10	285.00	51.0206	6.3893
10	285.00	64.5318	-8.8992
10	285.00	54.7485	-13.6131
10	285.00	60.0084	-30.3745
10	285.00	61.6525	-59.9487
10	285.00	65.8786	23.6948
10	285.00	37.9675	-29.7272
10	285.00	38.0152	-23.1462
10	285.00	46.0134	-13.1718
10	285.00	45.9736	1.8247
10	285.00	52.6302	6.2858
10	285.00	233.4515	49.7880
10	285.00	222.4611	0.8164
10	285.00	235.7403	34.2644
10	285.00	226.8014	9.6263
10	285.00	221.1156	-58.3487
10	285.00	244.3191	12.4987
10	285.00	231.6350	84.4277
10	285.00	224.2571	5.8336
10	285.00	235.1165	3.9415
10	285.00	236.5925	46.7688
10	285.00	244.8486	3.1358
10	285.00	228.0955	71.7177
10	285.00	218.3842	-34.6328
10	285.00	235.0559	23.2053
10	285.00	233.7289	39.1491
10	285.00	230.1439	88.3589
10	285.00	215.7555	15.9415
10	285.00	224.0756	30.6000
10	285.00	217.4105	-13.1903
10	285.00	231.7603	24.8423
10	285.00	239.7696	8.3280
10	285.00	244.1295	6.5522
10	285.00	212.5595	-1.7562
10	285.00	208.7983	14.2546
10	285.00	248.1801	3.1841
10	285.00	254.2186	16.7062
10	285.00	245.9508	18.5851
10	285.00	250.4896	-12.4781
10	285.00	213.3194	-28.8227
10	285.00	244.7328	2.8736
10	285.00	216.0595	34.1037
10	285.00	211.8205	12.3771
10	285.00	257.8512	-22.5000
10	285.00	259.7386	-11.7000
10	285.00	201.6057	39.1466
10	285.00	258.1316	40.1000
10	285.00	202.0038	22.9011
10	285.00	200.7351	20.2366
10	285.00	254.9985	38.6000
10	285.00	199.7586	42.2103
10	285.00	205.2544	39.2311
10	285.00	208.1475	42.4790
10	285.00	201.3486	21.7409
10	285.00	207.3895	28.2913
10	285.00	207.4143	28.6387
10	285.00	202.2392	30.4630
10	285.00	203.1146	39.7479
10	285.00	206.1383	56.8606
10	285.00	204.7309	45.2026
10	285.00	260.8483	25.3000
10	285.00	200.0431	-1.6551
10	285.00	203.0877	9.5132
10	285.00	195.6877	-55.6851
10	285.00	194.3038	-51.7930
10	285.00	264.9785	65.9000
10	285.00	192.7186	-50.1959
10	285.00	191.5504	-55.1598
10	285.00	269.9759	-22.5000
10	285.00	192.0878	-20.2325
10	285.00	192.1055	-32.0470
10	285.00	192.0024	-27.6720
10	285.00	187.4854	-20.6162
10	285.00	187.4515	-18.7729
10	285.00	186.8180	-20.3751
10	285.00	186.4031	-10.4665
10	285.00	183.7345	32.7392
10	285.00	183.9782	55.2636
10	285.00	183.8408	-21.8845
10	285.00	185.4947	-23.4506
10	285.00	184.7016	0.6528
10	285.00	182.2653	-18.4322
10	285.00	183.3761	18.9436
10	285.00	180.4096	-15.1767
10	285.00	180.9422	1.8084
10	285.00	178.5354	-9.2799
10	285.00	180.6294	-25.2118
10	285.00	180.1807	36.1532
10	285.00	178.5278	-3.8856
10	285.00	176.1858	-40.8372
10	285.00	178.0685	-10.5567
10	285.00	175.8211	26.4570
10	285.00	176.7293	4.8629
10	285.00	174.6923	-24.4717
10	285.00	173.3867	-16.7892
10	285.00	173.6435	-1.9530
10	285.00	173.1332	-43.1923
10	285.00	173.2682	-55.1209
10	285.00	172.5739	-24.1916
10	285.00	170.9359	-38.4732
10	285.00	170.7463	-24.6752
10	285.00	168.9140	-14.3152
10	285.00	167.8873	-30.2420
10	285.00	167.9841	-14.8297
10	285.00	167.1452	-522.9220
10	285.00	168.4978	-37.0552
10	285.00	168.2401	-31.4260
10	285.00	166.2626	-25.8312
10	285.00	167.2027	-25.1629
10	285.00	165.5338	-33.3000
