# PA_bin	RadialBinCenter[kpc]	PA[deg]	RM[rad/m^2]
1	15.00	229.0822	-29.2675
1	15.00	248.9494	-27.2869
1	15.00	238.4778	-68.0626
1	15.00	251.5904	-8.7367
1	15.00	229.1860	-26.8125
1	15.00	275.6737	-11.8733
1	15.00	208.3821	-14.8630
1	15.00	182.8967	-46.5770
1	15.00	286.6214	-6.7938
1	15.00	249.1250	-63.3650
1	15.00	248.4657	-47.3922
1	15.00	172.7465	3.9610
1	15.00	255.2526	-48.4797
1	15.00	223.9550	-56.0169
1	15.00	302.3863	-21.4857
1	15.00	134.2377	-27.5461
1	15.00	332.1416	-7.0455
1	15.00	62.1389	-33.3337
1	15.00	3.4018	-145.6849
1	15.00	95.5604	-32.2350
1	15.00	92.7580	-36.1778
1	15.00	84.0219	-31.6893
1	15.00	93.8651	-37.5317
1	15.00	77.4761	-25.7092
1	15.00	103.1548	-68.4188
1	15.00	101.1712	-35.4763
1	15.00	62.7460	-16.5239
1	15.00	11.2645	-7.3506
1	15.00	74.9077	-20.4451
1	15.00	71.8749	-33.6678
1	15.00	27.2924	-13.7570
1	15.00	67.6122	-3.1434
2	45.00	236.2399	-20.9563
2	45.00	208.7785	-108.0419
2	45.00	252.6746	-77.2215
2	45.00	252.5569	-76.4716
2	45.00	260.1943	-39.9083
2	45.00	230.3745	-51.8874
2	45.00	265.7029	-36.1712
2	45.00	268.8240	-3.3730
2	45.00	203.7785	-53.3250
2	45.00	214.5223	-121.7557
2	45.00	200.4248	-45.7508
2	45.00	240.7213	-21.6984
2	45.00	186.5666	-18.4351
2	45.00	283.3660	20.4229
2	45.00	200.7032	-30.7970
2	45.00	276.1619	-9.2317
2	45.00	178.0551	-40.2340
2	45.00	179.8866	-34.9273
2	45.00	291.1482	12.2586
2	45.00	287.1202	-5.4241
2	45.00	287.3426	-12.7918
2	45.00	170.4379	-24.7602
2	45.00	290.1715	-10.5723
2	45.00	192.4386	-27.6859
2	45.00	295.8836	7.6380
2	45.00	176.8131	-13.4181
2	45.00	298.5422	-16.3300
2	45.00	177.9594	-14.1280
2	45.00	182.6028	-87.6063
2	45.00	182.3018	-64.1022
2	45.00	299.4748	14.0794
2	45.00	162.2870	-31.7396
2	45.00	163.1388	-35.1263
2	45.00	154.5946	-14.0219
2	45.00	162.6868	-30.6145
2	45.00	153.3880	-5.6211
2	45.00	146.7304	-1.8281
2	45.00	144.0627	-50.6568
2	45.00	139.4324	-49.9699
2	45.00	138.0862	-29.4624
2	45.00	137.0440	-21.5465
2	45.00	136.7336	-30.7377
2	45.00	132.6124	-22.4997
2	45.00	123.6772	-25.1390
2	45.00	338.9729	1.6009
2	45.00	125.1378	-27.0406
2	45.00	127.6985	15.3732
2	45.00	343.5609	-50.8273
2	45.00	118.1076	3.0314
2	45.00	347.0931	1.9970
2	45.00	109.8518	-47.4178
2	45.00	349.8287	-3.5018
2	45.00	110.2991	7.6317
2	45.00	2.9037	-16.6186
2	45.00	104.4006	-15.8525
2	45.00	101.1942	10.8232
2	45.00	108.4479	-2.7344
2	45.00	45.6832	23.2539
2	45.00	45.8643	-5.1650
2	45.00	4.6035	-3.2173
2	45.00	86.5492	15.2976
2	45.00	86.6575	-28.2619
2	45.00	77.3386	-26.9696
2	45.00	64.8216	-59.6268
2	45.00	33.4794	-35.3960
3	75.00	238.5898	-20.3293
3	75.00	249.0159	-6.9476
3	75.00	248.4265	-8.3824
3	75.00	255.4701	-53.7132
3	75.00	222.5635	-45.8201
3	75.00	211.8186	-54.6643
3	75.00	225.6568	-17.1492
3	75.00	206.2982	-69.5715
3	75.00	224.4223	-52.0132
3	75.00	269.9487	-1.6953
3	75.00	258.4677	-31.4435
3	75.00	278.4477	17.5720
3	75.00	285.8668	1.0963
3	75.00	286.4084	1.1485
3	75.00	183.4135	-38.4023
3	75.00	277.0736	-23.6976
3	75.00	289.5171	-6.8069
3	75.00	290.2506	-14.1659
3	75.00	178.8096	-30.7201
3	75.00	167.7380	-1.6173
3	75.00	290.3867	-1.1066
3	75.00	166.3032	-28.5057
3	75.00	170.9108	-41.9382
3	75.00	293.2799	-23.7976
3	75.00	293.4559	-29.3413
3	75.00	166.4818	7.4476
3	75.00	161.0122	-21.6772
3	75.00	159.0691	-12.0919
3	75.00	158.9416	-24.2034
3	75.00	305.3449	7.6429
3	75.00	159.5883	-3.4274
3	75.00	306.5984	2.4888
3	75.00	151.2646	-50.5690
3	75.00	312.7536	-7.4855
3	75.00	149.8793	-70.4303
3	75.00	145.8217	-13.3330
3	75.00	145.5323	-31.9099
3	75.00	318.8890	-46.4010
3	75.00	322.0901	-13.3010
3	75.00	323.4967	30.7993
3	75.00	327.5240	-21.9537
3	75.00	137.8211	-33.8598
3	75.00	137.7599	-46.9905
3	75.00	333.1622	-29.8543
3	75.00	340.5876	-41.2640
3	75.00	342.5210	-56.8030
3	75.00	344.8552	-19.7068
3	75.00	119.0446	-16.3292
3	75.00	107.4572	34.2508
3	75.00	113.4780	-48.2286
3	75.00	1.6321	-29.2223
3	75.00	13.8890	1.5458
3	75.00	359.1617	-23.9821
3	75.00	11.8284	-33.6651
3	75.00	17.6698	-30.1515
3	75.00	100.1545	-14.5131
3	75.00	12.9836	-11.0893
3	75.00	16.9409	-13.6119
3	75.00	89.0431	5.7616
3	75.00	76.6945	-50.1417
3	75.00	10.5978	14.9635
3	75.00	88.7645	-13.0866
3	75.00	18.1349	2.7619
3	75.00	38.9072	3.7477
3	75.00	17.6360	3.9972
3	75.00	17.7948	6.3504
3	75.00	20.4651	-19.0143
3	75.00	68.5291	-24.1666
3	75.00	84.6511	0.0364
3	75.00	68.6188	-29.0828
3	75.00	91.6982	-27.2064
3	75.00	89.2764	-55.8607
3	75.00	26.5336	-9.7484
3	75.00	69.1954	-16.7757
3	75.00	31.2182	-58.4432
3	75.00	49.4063	-38.9094
3	75.00	47.9831	-74.0639
3	75.00	48.0782	-66.8518
3	75.00	77.0925	-24.9511
3	75.00	62.9833	-6.8043
3	75.00	24.7858	-15.8981
3	75.00	34.1679	-45.8306
3	75.00	42.9983	-50.5172
3	75.00	63.7691	-28.4699
4	105.00	247.8203	-9.7868
4	105.00	215.1453	-145.2458
4	105.00	233.4022	-56.9049
4	105.00	252.9257	-19.0785
4	105.00	227.4767	-54.1525
4	105.00	218.1333	-111.3245
4	105.00	218.0937	-120.6718
4	105.00	246.9644	-14.9827
4	105.00	203.1310	-58.4510
4	105.00	199.8561	-70.1489
4	105.00	226.9784	-52.5340
4	105.00	253.7298	-16.6839
4	105.00	241.3010	-8.7642
4	105.00	197.7046	-10.4325
4	105.00	251.8847	-13.0775
4	105.00	227.7609	-32.3320
4	105.00	255.9790	0.8381
4	105.00	206.4574	-120.7066
4	105.00	195.1525	-35.7915
4	105.00	207.5974	-110.6151
4	105.00	207.6616	-99.3830
4	105.00	191.6622	-25.7813
4	105.00	186.8408	-14.6340
4	105.00	276.7393	3.1984
4	105.00	274.9730	44.1674
4	105.00	273.3002	-19.3005
4	105.00	181.1181	-20.0556
4	105.00	182.5647	4.6082
4	105.00	271.9775	27.8456
4	105.00	181.2582	11.1181
4	105.00	282.1265	-22.5287
4	105.00	186.5578	30.9068
4	105.00	286.5641	-28.0598
4	105.00	276.0170	-24.2829
4	105.00	178.2908	-2.2777
4	105.00	282.4402	9.5949
4	105.00	175.8975	3.9900
4	105.00	280.7650	0.9963
4	105.00	292.2379	-25.4294
4	105.00	171.5514	5.6777
4	105.00	286.1777	-23.8557
4	105.00	170.4814	-9.2616
4	105.00	297.8766	-6.9680
4	105.00	297.8323	-5.0000
4	105.00	168.3127	-18.4789
4	105.00	163.7594	-19.4815
4	105.00	164.0479	8.2631
4	105.00	157.3662	-93.3343
4	105.00	153.6693	-23.9056
4	105.00	150.0627	-31.0988
4	105.00	149.5262	-28.5093
4	105.00	148.9771	-60.2165
4	105.00	147.4235	-29.2577
4	105.00	146.8495	-37.3722
4	105.00	318.1830	-19.1801
4	105.00	146.4823	-38.9839
4	105.00	320.1789	8.8273
4	105.00	320.4328	-9.5087
4	105.00	321.0705	6.8031
4	105.00	321.5636	-26.8412
4	105.00	134.6725	-33.2912
4	105.00	133.6825	-52.5562
4	105.00	131.4606	-35.2508
4	105.00	334.7558	-62.0370
4	105.00	335.6907	-55.2863
4	105.00	335.7769	-54.6291
4	105.00	125.8299	-0.0234
4	105.00	123.1039	-13.9545
4	105.00	337.7755	-40.1583
4	105.00	338.6708	-36.1440
4	105.00	344.2941	-34.5190
4	105.00	340.2811	-20.4080
4	105.00	340.4483	-31.0092
4	105.00	122.3683	-14.1204
4	105.00	117.5470	-11.5547
4	105.00	118.0130	-51.6756
4	105.00	343.8974	-43.6699
4	105.00	119.7120	-21.7889
4	105.00	118.7747	-5.6130
4	105.00	351.9285	2.5766
4	105.00	108.8326	-30.2474
4	105.00	353.2800	-45.6943
4	105.00	351.8512	-38.8211
4	105.00	111.5642	-3.2367
4	105.00	109.3983	-51.8220
4	105.00	102.3746	-1.8568
4	105.00	0.7812	-39.0094
4	105.00	98.8703	-25.4197
4	105.00	91.6629	-26.3684
4	105.00	101.1361	13.5599
4	105.00	92.8475	-31.8556
4	105.00	5.0701	-38.5895
4	105.00	100.1035	6.0841
4	105.00	91.8157	-2.2881
4	105.00	97.4246	-31.5748
4	105.00	95.6939	-13.5583
4	105.00	89.6749	13.5422
4	105.00	31.9795	-46.9105
4	105.00	64.2333	-68.3186
4	105.00	92.5960	-4.8087
4	105.00	15.5444	19.9563
4	105.00	12.6053	-44.5640
4	105.00	12.5323	-40.3141
4	105.00	82.1617	-10.1800
4	105.00	82.0090	2.3226
4	105.00	74.0144	-41.7141
4	105.00	32.4425	-4.4871
4	105.00	40.1669	-32.1643
4	105.00	83.7471	-12.4151
4	105.00	43.5714	-25.5503
4	105.00	79.1543	-43.2941
4	105.00	78.5793	-65.7696
4	105.00	48.9043	-55.1479
4	105.00	29.1219	8.8352
4	105.00	30.6432	4.6050
4	105.00	64.9238	-31.4275
4	105.00	76.4944	-29.4988
4	105.00	41.4091	-5.5171
4	105.00	41.6752	-29.2329
4	105.00	70.1243	-38.2504
4	105.00	65.1793	-8.4711
4	105.00	222.0441	-102.6831
4	105.00	243.8226	-35.6925
4	105.00	247.5883	-33.6102
4	105.00	225.8796	-137.0998
4	105.00	215.9932	-165.8529
4	105.00	212.5188	-140.0925
5	135.00	269.6083	-46.9718
5	135.00	197.5455	8.5219
5	135.00	197.2293	2.4440
5	135.00	270.3399	-17.2347
5	135.00	194.8181	-3.1343
5	135.00	278.3038	35.2980
5	135.00	277.0782	-27.8864
5	135.00	272.2541	-16.4120
5	135.00	276.6028	31.1861
5	135.00	283.0688	125.4332
5	135.00	187.1632	16.6628
5	135.00	188.3672	9.2790
5	135.00	182.8021	-29.0507
5	135.00	179.4192	14.1601
5	135.00	179.4786	13.0569
5	135.00	282.1374	3.8660
5	135.00	282.4554	11.4667
5	135.00	283.7730	24.7661
5	135.00	286.2207	32.7420
5	135.00	181.0721	12.3681
5	135.00	174.2952	53.5259
5	135.00	173.3385	-5.0336
5	135.00	176.3536	7.1215
5	135.00	171.8738	16.0424
5	135.00	288.6129	-12.1978
5	135.00	288.6459	-30.5768
5	135.00	293.4307	59.6586
5	135.00	171.9745	71.6731
5	135.00	171.9115	24.5039
5	135.00	172.6692	13.9032
5	135.00	290.6601	-9.5435
5	135.00	169.9002	16.7767
5	135.00	163.3759	5.3062
5	135.00	165.9604	4.7337
5	135.00	298.7225	-12.4925
5	135.00	164.1106	-4.2978
5	135.00	301.4424	17.6920
5	135.00	301.5370	0.6805
5	135.00	300.6109	1.1501
5	135.00	163.7861	0.7517
5	135.00	161.2944	-24.3861
5	135.00	157.2869	-2.0187
5	135.00	157.7158	-13.4365
5	135.00	308.9347	63.2018
5	135.00	310.0082	4.8284
5	135.00	310.5773	4.5589
5	135.00	312.7240	5.3785
5	135.00	149.3849	-26.2103
5	135.00	149.0352	-7.5209
5	135.00	149.0818	-21.1304
5	135.00	317.3619	-26.8366
5	135.00	144.5113	-4.9998
5	135.00	144.4675	-32.7183
5	135.00	144.0537	-35.1116
5	135.00	143.4782	-13.4427
5	135.00	143.4469	-25.8440
5	135.00	142.7809	-4.8824
5	135.00	322.4550	-16.4888
5	135.00	142.0617	-19.1112
5	135.00	322.7090	-6.9462
5	135.00	140.8737	-15.6471
5	135.00	325.2262	0.3053
5	135.00	138.7735	-39.1631
5	135.00	137.7326	5.5510
5	135.00	137.7804	-20.1629
5	135.00	134.7271	14.3222
5	135.00	330.1882	-5.6151
5	135.00	330.3635	9.7497
5	135.00	331.1604	11.7634
5	135.00	331.1921	16.7357
5	135.00	133.0585	-21.7411
5	135.00	133.0435	-24.1771
5	135.00	131.8172	-77.1602
5	135.00	131.1957	-33.2941
5	135.00	131.3935	-20.1170
5	135.00	130.5286	-26.0602
5	135.00	335.9167	-13.5280
5	135.00	338.4852	-17.9048
5	135.00	341.3271	-27.2735
5	135.00	126.0798	-1.1236
5	135.00	124.9565	-20.8470
5	135.00	123.6512	-15.0851
5	135.00	340.8802	-55.5437
5	135.00	340.4696	-55.0344
5	135.00	124.2954	-38.0636
5	135.00	344.1806	-62.1740
5	135.00	122.7021	-18.9143
5	135.00	343.0495	-3.2073
5	135.00	344.0982	-52.2198
5	135.00	343.5365	49.2788
5	135.00	119.9772	-8.4002
5	135.00	120.6595	-36.2972
5	135.00	118.4441	-35.1490
5	135.00	350.9960	-64.4835
5	135.00	111.2435	3.7401
5	135.00	114.9683	-23.6446
5	135.00	355.4718	-24.3971
5	135.00	114.6122	-9.2071
5	135.00	109.0677	-12.6724
5	135.00	109.5743	12.3709
5	135.00	357.1829	-75.9655
5	135.00	357.1877	-47.7024
5	135.00	108.1733	-33.9740
5	135.00	356.8723	-56.1083
5	135.00	357.3196	-85.6463
5	135.00	1.2451	-50.0180
5	135.00	102.5710	-3.1683
5	135.00	95.7893	13.3161
5	135.00	16.0508	-37.1288
5	135.00	84.7850	8.8720
5	135.00	8.9585	-56.4822
5	135.00	8.8129	-50.3555
5	135.00	16.8081	-31.9684
5	135.00	9.1499	-86.5521
5	135.00	13.8332	-74.1266
5	135.00	13.6786	-103.1342
5	135.00	26.3835	2.1312
5	135.00	21.5930	-32.1474
5	135.00	79.7639	13.4240
5	135.00	33.4355	4.3592
5	135.00	45.3394	-26.2317
5	135.00	57.0599	-19.5307
5	135.00	18.4205	-51.3958
5	135.00	84.8178	23.6768
5	135.00	61.2566	-6.3499
5	135.00	48.1134	-32.8483
5	135.00	72.2375	-125.4367
5	135.00	65.7435	2.6771
5	135.00	43.4302	-5.2549
5	135.00	71.3170	9.4117
5	135.00	26.5216	2.9687
5	135.00	35.9403	-21.1896
5	135.00	72.1415	33.7617
5	135.00	72.7554	15.5204
5	135.00	25.0977	-33.9768
5	135.00	67.5876	-4.5862
5	135.00	67.4689	-20.9751
5	135.00	74.8130	15.6533
5	135.00	74.7164	4.3990
5	135.00	43.3398	-36.2877
5	135.00	41.8020	-41.4099
5	135.00	41.7727	-30.6800
5	135.00	69.5626	42.1118
5	135.00	58.5990	-9.9256
5	135.00	63.9598	-15.1560
5	135.00	63.8873	-12.4193
5	135.00	60.3100	-9.6855
5	135.00	56.3508	-26.5877
5	135.00	232.9765	-35.8925
5	135.00	234.9163	-8.7424
5	135.00	228.8827	-51.3423
5	135.00	214.5826	-76.2934
5	135.00	251.6452	-45.6884
5	135.00	254.6583	-41.0455
5	135.00	223.9476	-98.3718
5	135.00	215.7008	-94.5917
5	135.00	229.8340	-58.5725
5	135.00	241.8609	-52.0152
5	135.00	254.5796	-10.3339
5	135.00	218.9216	-143.3474
5	135.00	222.3544	-109.9010
5	135.00	222.3110	-100.8950
5	135.00	206.7927	-83.9727
5	135.00	255.8050	-36.3808
5	135.00	242.3907	-67.3943
5	135.00	213.4255	-96.7370
5	135.00	246.7821	-31.8469
5	135.00	259.4105	-41.6345
5	135.00	265.6815	-43.3042
5	135.00	197.5771	-16.5405
5	135.00	267.5641	-22.3533
5	135.00	201.7762	-72.7837
6	165.00	186.9480	-8.1507
6	165.00	184.3129	8.5739
6	165.00	179.8518	28.1560
6	165.00	183.6724	6.3309
6	165.00	179.6672	-1.9796
6	165.00	181.8562	-15.9586
6	165.00	181.8318	7.7154
6	165.00	177.2573	28.7900
6	165.00	285.3237	80.7540
6	165.00	179.5265	18.3047
6	165.00	172.0679	9.5316
6	165.00	175.2179	30.2627
6	165.00	175.1735	30.3440
6	165.00	175.1484	28.5959
6	165.00	289.5456	85.2635
6	165.00	170.7805	48.0474
6	165.00	294.7708	49.7536
6	165.00	297.3123	44.5656
6	165.00	169.8069	2.5272
6	165.00	168.1643	15.1532
6	165.00	165.5370	-15.1008
6	165.00	297.5989	63.8929
6	165.00	165.0392	-0.6578
6	165.00	300.3900	53.2375
6	165.00	166.4608	-24.2862
6	165.00	166.2126	-5.2833
6	165.00	300.2625	59.1553
6	165.00	162.7253	-26.4535
6	165.00	159.3989	-31.8298
6	165.00	159.3778	-42.1352
6	165.00	158.3161	-6.6611
6	165.00	306.8958	80.2379
6	165.00	306.7484	46.2907
6	165.00	154.7825	-22.2056
6	165.00	154.2179	2.2447
6	165.00	154.8396	-32.2433
6	165.00	312.2129	5.2910
6	165.00	152.0884	2.7087
6	165.00	314.1230	-3.3814
6	165.00	150.2197	-5.3387
6	165.00	148.9736	2.2927
6	165.00	148.3023	9.6022
6	165.00	317.3540	-31.7794
6	165.00	318.4253	-21.7784
6	165.00	145.7428	-2.1696
6	165.00	145.7067	2.2320
6	165.00	142.3833	10.2237
6	165.00	324.4294	-26.2524
6	165.00	324.5416	-51.9641
6	165.00	324.3805	-9.6328
6	165.00	139.0361	0.7950
6	165.00	135.2491	16.0103
6	165.00	133.8590	-32.2414
6	165.00	332.3471	-16.8369
6	165.00	132.3589	-9.1187
6	165.00	336.5387	-19.6883
6	165.00	127.7918	-17.0310
6	165.00	337.4739	-26.4869
6	165.00	124.9828	-33.5063
6	165.00	124.7266	32.7738
6	165.00	122.2872	-62.8038
6	165.00	347.6581	-45.7331
6	165.00	346.6116	-9.9694
6	165.00	114.0038	17.0240
6	165.00	350.7456	-63.9476
6	165.00	111.0382	-4.4213
6	165.00	115.6179	-2.1692
6	165.00	115.5538	1.5470
6	165.00	111.0096	-13.6279
6	165.00	354.7251	-114.5740
6	165.00	110.5462	-4.9776
6	165.00	104.6875	-8.5572
6	165.00	356.9260	-73.0017
6	165.00	100.8241	-5.7757
6	165.00	99.4854	18.7572
6	165.00	100.5488	14.4332
6	165.00	0.7606	-18.9286
6	165.00	96.5088	12.7107
6	165.00	9.5644	-70.3749
6	165.00	93.0795	-1.5743
6	165.00	98.1229	-5.9610
6	165.00	91.3588	-24.1174
6	165.00	3.9917	-73.4959
6	165.00	98.9390	14.0475
6	165.00	98.9263	7.0831
6	165.00	12.3824	-87.5917
6	165.00	96.6677	48.0514
6	165.00	8.7984	-52.4950
6	165.00	14.4594	-67.1396
6	165.00	92.0685	30.7102
6	165.00	93.3779	12.2970
6	165.00	22.0277	-67.5256
6	165.00	27.7780	-23.3416
6	165.00	22.9198	-58.5758
6	165.00	76.4420	0.7620
6	165.00	30.1618	-38.6777
6	165.00	72.4013	18.0686
6	165.00	69.3873	-23.8363
6	165.00	36.4861	1.3928
6	165.00	72.9192	-31.8009
6	165.00	27.4669	-50.0699
6	165.00	70.4430	5.6088
6	165.00	67.3433	-50.3359
6	165.00	56.1924	2.1973
6	165.00	44.1113	-26.4597
6	165.00	68.5321	-1.3500
6	165.00	58.0286	-25.5788
6	165.00	63.2365	5.6496
6	165.00	50.2932	-25.5926
6	165.00	61.5058	6.4052
6	165.00	27.4675	-72.0175
6	165.00	49.2342	-28.6606
6	165.00	35.1812	15.3249
6	165.00	40.5986	10.6633
6	165.00	40.4995	11.3866
6	165.00	51.4887	-12.0056
6	165.00	31.4532	17.1577
6	165.00	35.5708	24.5428
6	165.00	32.8039	-2.9143
6	165.00	47.2127	10.6518
6	165.00	48.1804	-28.7342
6	165.00	69.8765	4.0550
6	165.00	40.4704	25.0288
6	165.00	40.4113	19.7893
6	165.00	40.4200	15.1781
6	165.00	63.4624	11.2049
6	165.00	62.9160	4.9052
6	165.00	44.7508	-28.1218
6	165.00	232.8348	5.1340
6	165.00	234.9860	-22.7944
6	165.00	221.5827	-1.8012
6	165.00	232.4005	-5.0137
6	165.00	219.1774	-5.1125
6	165.00	214.0331	-7.5646
6	165.00	251.9532	-9.6253
6	165.00	235.0412	-21.5535
6	165.00	206.7245	14.5311
6	165.00	217.8746	-52.1301
6	165.00	233.1574	-11.9726
6	165.00	249.2513	-39.8043
6	165.00	250.3206	-24.1643
6	165.00	246.3190	-49.9665
6	165.00	244.1611	-51.0100
6	165.00	252.8435	-37.6232
6	165.00	208.4502	-31.7639
6	165.00	212.2773	-56.1243
6	165.00	203.5936	-39.3192
6	165.00	203.6062	-36.0632
6	165.00	248.8990	-6.2206
6	165.00	200.2373	3.3844
6	165.00	200.2638	2.4976
6	165.00	261.5801	19.7669
6	165.00	200.9031	-42.7785
6	165.00	266.4104	31.4819
6	165.00	201.4024	-23.6219
6	165.00	259.8758	20.3283
6	165.00	205.6242	-55.6738
6	165.00	195.7706	2.8693
6	165.00	269.9921	17.9884
6	165.00	202.5435	-6.6227
6	165.00	273.7756	45.0772
6	165.00	193.0771	-26.6494
6	165.00	272.2199	44.7898
6	165.00	265.4821	36.3494
6	165.00	187.9784	-28.8689
6	165.00	192.1650	26.4754
6	165.00	192.0706	9.6555
6	165.00	273.7085	56.8832
6	165.00	187.0695	-2.4080
6	165.00	276.8465	35.2298
6	165.00	274.1338	-3.6102
6	165.00	181.1562	-10.2000
7	195.00	179.0245	25.3000
7	195.00	175.0535	-23.8000
7	195.00	175.9102	-9.7567
7	195.00	176.4722	22.0729
7	195.00	176.8827	24.9613
7	195.00	177.0650	13.9437
7	195.00	173.1083	-43.7722
7	195.00	174.0911	-53.3242
7	195.00	170.9128	-16.9080
7	195.00	169.9158	25.5862
7	195.00	164.3182	28.5149
7	195.00	165.1008	-23.4885
7	195.00	163.3606	-30.9036
7	195.00	162.4826	-45.0058
7	195.00	159.2349	-23.2013
7	195.00	158.6388	-31.5147
7	195.00	160.0548	-48.2624
7	195.00	158.1898	-17.9262
7	195.00	157.3216	12.1287
7	195.00	156.5058	-41.9669
7	195.00	156.1762	-28.0656
7	195.00	156.1176	8.5195
7	195.00	155.6310	-20.7828
7	195.00	153.7228	-4.8488
7	195.00	151.9498	0.7483
7	195.00	313.2705	-23.7866
7	195.00	151.4971	-7.1500
7	195.00	150.2637	2.3983
7	195.00	150.4041	-0.2994
7	195.00	150.0083	3.1609
7	195.00	148.7808	-4.9562
7	195.00	316.6952	13.3027
7	195.00	317.0244	-25.3320
7	195.00	147.2546	-21.6385
7	195.00	318.5873	-74.9815
7	195.00	319.3763	-95.2029
7	195.00	143.5598	-8.3842
7	195.00	142.9969	-28.5781
7	195.00	142.4135	-3.0760
7	195.00	142.3340	-7.2926
7	195.00	140.8840	-10.7632
7	195.00	134.5246	-18.1338
7	195.00	133.2804	-19.1317
7	195.00	131.4545	12.6057
7	195.00	130.8832	7.2650
7	195.00	333.8162	33.6570
7	195.00	127.7094	13.0897
7	195.00	127.2573	5.8807
7	195.00	336.4679	-11.0824
7	195.00	340.6160	1.9105
7	195.00	343.3978	0.6996
7	195.00	344.8638	-23.6018
7	195.00	345.1763	-33.4723
7	195.00	344.7644	8.2461
7	195.00	343.9202	-5.1786
7	195.00	346.8980	-30.0091
7	195.00	347.1722	-36.0673
7	195.00	347.8560	-17.8288
7	195.00	355.5344	-102.9503
7	195.00	355.6555	-122.4421
7	195.00	1.5489	-99.8099
7	195.00	5.6145	-82.6104
7	195.00	16.0064	-34.2521
7	195.00	89.9819	63.7542
7	195.00	14.8111	13.4313
7	195.00	18.1131	-69.5232
7	195.00	11.1432	-9.3100
7	195.00	9.8264	30.1988
7	195.00	15.2123	-20.8163
7	195.00	86.0096	17.7448
7	195.00	20.1207	-45.9950
7	195.00	13.7601	39.0804
7	195.00	85.3879	13.8491
7	195.00	80.9036	30.8367
7	195.00	82.3722	-4.2363
7	195.00	80.3223	-4.4319
7	195.00	18.4610	26.0062
7	195.00	78.9661	37.0577
7	195.00	74.8752	-2.9183
7	195.00	31.5746	27.5591
7	195.00	83.0752	-2.3813
7	195.00	24.2599	-93.4669
7	195.00	20.2466	33.3145
7	195.00	32.9312	31.9736
7	195.00	74.3670	16.0362
7	195.00	19.9296	33.3656
7	195.00	72.4592	60.1047
7	195.00	28.8525	-46.2587
7	195.00	30.4118	-16.2671
7	195.00	70.5711	7.8323
7	195.00	30.6213	4.5606
7	195.00	63.1206	14.5518
7	195.00	74.2740	2.7780
7	195.00	24.2974	9.5322
7	195.00	61.2645	16.0188
7	195.00	57.0068	10.3501
7	195.00	61.1774	24.4010
7	195.00	59.5920	41.5490
7	195.00	35.9087	37.6133
7	195.00	76.7236	-60.5606
7	195.00	76.7393	-60.5603
7	195.00	38.8115	20.1012
7	195.00	38.8493	25.4092
7	195.00	74.2203	-10.3170
7	195.00	69.2160	13.6620
7	195.00	33.7720	37.1183
7	195.00	48.0207	-21.0549
7	195.00	44.2547	36.9546
7	195.00	58.7127	30.4316
7	195.00	55.2648	-7.1166
7	195.00	66.4140	7.4195
7	195.00	53.0447	-4.9467
7	195.00	57.0247	-11.0753
7	195.00	50.0947	-11.9319
7	195.00	51.1438	-38.7411
7	195.00	65.1440	7.3038
7	195.00	41.0946	23.6015
7	195.00	46.5036	-51.5784
7	195.00	51.1555	-3.2847
7	195.00	55.8490	3.2676
7	195.00	230.8010	-66.7004
7	195.00	220.9219	-7.6579
7	195.00	235.6306	-11.2230
7	195.00	217.7398	-20.9839
7	195.00	231.8386	-19.3242
7	195.00	219.1641	8.4638
7	195.00	223.2133	-12.6455
7	195.00	224.1956	-16.5163
7	195.00	220.8428	20.1019
7	195.00	231.3348	32.6027
7	195.00	234.5280	-22.8145
7	195.00	233.6608	-3.8656
7	195.00	231.6271	36.8334
7	195.00	226.3781	2.6277
7	195.00	226.3690	11.8706
7	195.00	212.3160	77.6093
7	195.00	243.7304	-44.8101
7	195.00	213.6261	-13.4043
7	195.00	240.1711	-28.4898
7	195.00	237.4415	-20.3212
7	195.00	228.3020	-35.4518
7	195.00	222.0342	-9.2843
7	195.00	220.2315	11.5742
7	195.00	203.0320	6.2656
7	195.00	213.7382	-4.4319
7	195.00	201.6430	2.0122
7	195.00	205.0445	-13.4641
7	195.00	205.6544	-15.4343
7	195.00	194.8638	22.8425
7	195.00	198.8395	15.2473
7	195.00	264.2336	15.1500
7	195.00	188.2283	16.0033
7	195.00	187.5187	-8.3447
7	195.00	189.3637	-7.4827
7	195.00	185.8228	5.8072
7	195.00	182.7207	8.4988
7	195.00	181.0548	-4.9483
7	195.00	178.1619	-18.0272
7	195.00	181.6295	7.9690
7	195.00	178.4583	-11.6000
8	225.00	171.5351	-31.6954
8	225.00	168.2301	-24.3243
8	225.00	169.8802	-22.4585
8	225.00	166.9984	-50.1461
8	225.00	164.2658	-19.2059
8	225.00	163.8978	26.4005
8	225.00	158.2847	-13.1219
8	225.00	158.2618	-12.5359
8	225.00	158.0182	-32.6920
8	225.00	156.4047	-33.1489
8	225.00	154.0065	-19.5480
8	225.00	152.9652	-54.5481
8	225.00	152.7850	-14.4768
8	225.00	146.2121	16.5240
8	225.00	332.1300	-95.4277
8	225.00	336.1947	-41.5945
8	225.00	341.9461	-116.6977
8	225.00	343.1315	31.0879
8	225.00	343.2659	30.5684
8	225.00	343.9483	4.8727
8	225.00	349.7792	-38.8486
8	225.00	350.9121	-27.8975
8	225.00	354.9475	-67.4172
8	225.00	359.6258	1.3829
8	225.00	355.2954	6.8955
8	225.00	6.2617	33.8246
8	225.00	4.3875	26.7305
8	225.00	5.3659	28.4076
8	225.00	5.4212	43.4363
8	225.00	13.1227	90.2552
8	225.00	10.8405	1.7751
8	225.00	38.7195	24.6000
8	225.00	69.3011	24.1602
8	225.00	65.0274	-0.3196
8	225.00	64.5743	16.2830
8	225.00	58.2153	20.7293
8	225.00	56.7259	0.4628
8	225.00	33.3726	98.5509
8	225.00	65.2180	12.0947
8	225.00	57.5508	-10.2915
8	225.00	48.9775	33.8470
8	225.00	54.1469	10.6873
8	225.00	42.7302	-36.4811
8	225.00	57.1120	-2.0938
8	225.00	37.3490	-31.8709
8	225.00	43.5948	-48.0539
8	225.00	64.5645	16.9374
8	225.00	59.8896	-7.3671
8	225.00	42.8666	35.6025
8	225.00	59.0204	23.1541
8	225.00	63.7254	10.3121
8	225.00	50.9639	12.9628
8	225.00	46.9600	0.5440
8	225.00	48.3663	-14.2362
8	225.00	213.4566	-9.0949
8	225.00	220.4631	-24.7290
8	225.00	211.9478	8.2605
8	225.00	221.5163	-40.3040
8	225.00	222.2860	-12.2461
8	225.00	227.1349	5.9632
8	225.00	211.8678	33.8454
8	225.00	207.5963	-22.0174
8	225.00	220.9024	-1.7347
8	225.00	209.0062	-0.6653
8	225.00	212.7795	1.0140
8	225.00	211.6586	-24.9494
8	225.00	212.6781	9.3095
8	225.00	213.3517	28.8740
8	225.00	209.2041	-50.0457
8	225.00	209.9497	-41.8389
8	225.00	201.7582	-4.7378
8	225.00	198.7536	-1.1575
8	225.00	210.2681	-24.1500
8	225.00	203.1802	-14.9628
8	225.00	211.0418	-8.2095
8	225.00	199.7255	30.1966
8	225.00	199.7146	13.0997
8	225.00	202.7274	-24.6076
8	225.00	196.6081	-7.1706
8	225.00	196.5639	-52.7934
8	225.00	197.1854	0.2809
8	225.00	193.9034	-8.9442
8	225.00	199.2864	6.0426
8	225.00	185.8855	-29.5486
8	225.00	184.3841	-40.1138
8	225.00	183.7277	-28.3437
8	225.00	188.7547	12.7512
8	225.00	181.2036	-44.2801
8	225.00	185.1960	9.7560
8	225.00	183.1486	-7.4749
8	225.00	179.3847	-54.8764
8	225.00	182.4232	-3.4709
8	225.00	177.6975	-10.4343
8	225.00	179.3759	-40.7392
8	225.00	177.2767	-22.4095
8	225.00	181.3094	-36.6701
8	225.00	176.2215	-20.3717
8	225.00	174.7137	-12.4184
8	225.00	174.6678	-16.1254
8	225.00	172.3103	-47.1647
8	225.00	173.5017	-20.4722
8	225.00	173.4869	-12.3851
8	225.00	171.8270	-25.0058
9	255.00	168.8135	4.2000
9	255.00	169.6511	-36.8744
9	255.00	165.4001	-7.8093
9	255.00	163.8095	-22.2763
9	255.00	163.5850	-26.0238
9	255.00	164.0832	-35.1895
9	255.00	162.5991	8.1797
9	255.00	159.3132	10.9718
9	255.00	159.2899	-23.2404
9	255.00	352.5651	-8.8086
9	255.00	8.2860	40.5502
9	255.00	7.0128	75.2032
9	255.00	16.3917	164.1413
9	255.00	16.1953	91.8974
9	255.00	17.9032	103.9385
9	255.00	16.7407	152.7580
9	255.00	25.0085	51.4189
9	255.00	25.0015	48.7607
9	255.00	37.1900	-63.9118
9	255.00	34.1325	-23.8221
9	255.00	27.4509	51.1262
9	255.00	29.3689	64.8908
9	255.00	55.8466	11.1722
9	255.00	52.9720	115.8437
9	255.00	57.0432	5.8897
9	255.00	55.7253	-14.2374
9	255.00	54.6602	3.9203
9	255.00	54.7151	-16.5587
9	255.00	45.1107	-12.4968
9	255.00	55.4535	-17.9038
9	255.00	56.3943	-24.9204
9	255.00	50.0868	34.4714
9	255.00	56.5884	-3.2919
9	255.00	44.6636	-21.4586
9	255.00	52.8318	-2.5431
9	255.00	48.0676	-57.5194
9	255.00	50.8181	-26.1314
9	255.00	55.3934	-58.0415
9	255.00	52.6717	4.4983
9	255.00	53.4652	-1.9389
9	255.00	204.1013	-6.4329
9	255.00	204.3534	15.9770
9	255.00	206.2116	-1.0636
9	255.00	200.8567	-11.2337
9	255.00	208.9790	14.1307
9	255.00	209.9316	9.9664
9	255.00	202.9897	-12.1397
9	255.00	203.6881	-10.2953
9	255.00	207.8686	-12.6316
9	255.00	199.0951	-37.9711
9	255.00	200.6710	-33.4663
9	255.00	200.2127	-14.6193
9	255.00	202.5905	14.0509
9	255.00	198.9536	2.7066
9	255.00	194.6703	50.5898
9	255.00	196.3348	-54.6317
9	255.00	193.2760	-64.4983
9	255.00	195.6396	13.1142
9	255.00	192.0299	-32.7351
9	255.00	194.2396	122.3749
9	255.00	187.4169	10.2363
9	255.00	191.0541	-18.4348
9	255.00	188.7911	-59.3576
9	255.00	186.2796	22.8834
9	255.00	187.0358	-18.5088
9	255.00	185.3298	-60.4781
9	255.00	182.8039	-47.7980
9	255.00	180.0020	-20.0995
9	255.00	178.8405	-56.8299
9	255.00	177.1484	-8.0566
9	255.00	177.0953	-8.6201
9	255.00	172.5136	-21.9841
9	255.00	173.1283	-28.2426
9	255.00	172.5249	-18.0146
9	255.00	173.7597	-2.8848
9	255.00	169.7034	-5.9453
9	255.00	171.2427	-23.0502
10	285.00	19.1630	38.3739
10	285.00	25.8932	42.5451
10	285.00	27.2256	4.2327
10	285.00	38.2979	-51.3574
10	285.00	38.2907	-61.3517
10	285.00	28.3336	-9.6591
10	285.00	33.6027	0.9441
10	285.00	34.0628	-28.6215
10	285.00	33.0774	12.7947
10	285.00	33.1295	9.0417
10	285.00	37.9565	3.1267
10	285.00	45.2808	-30.4480
10	285.00	37.2125	-21.9992
10	285.00	192.0878	5.0132
10	285.00	192.1055	-6.8022
10	285.00	192.0024	-1.8200
10	285.00	187.4854	3.2819
10	285.00	192.3443	-17.0618
10	285.00	192.2935	-46.4723
10	285.00	187.4515	5.2375
10	285.00	189.6347	11.9384
10	285.00	183.7345	34.1393
10	285.00	183.9782	58.4173
10	285.00	183.8408	-17.3154
10	285.00	185.4947	5.6263
10	285.00	184.7016	23.3357
10	285.00	182.2653	-15.5208
10	285.00	183.3761	28.9116
10	285.00	180.4096	-10.3562
10	285.00	180.9422	8.0148
10	285.00	178.5354	-1.0517
10	285.00	181.0629	5.8175
10	285.00	180.6294	-17.4030
10	285.00	180.1807	43.5806
10	285.00	178.5278	7.2136
10	285.00	178.0685	1.7739
10	285.00	175.8211	42.1288
10	285.00	176.7293	20.0556
10	285.00	174.6923	-4.5646
10	285.00	173.2682	-32.8912
10	285.00	172.5739	0.1297
10	285.00	170.7463	2.5580
